[Header]
Application Name,LabSolutions
Version,5.97 SP1
Data File Name,D:\SHIMADZU\右装置\ohara\201029 InMe.lcd
Output Date,2020/10/29
Output Time,14:07:31

[Configuration]
Instrument Name,右_HPLC
Instrument #,2
Line #,1
# of Detectors,1
Detector ID,Detector A
Detector Name,検出器A
# of Channels,2

[LC Chromatogram(Detector A-Ch1)]
Interval(msec),500
# of Points,4099
Start Time(min),0.000
End Time(min),34.150
Intensity Units,mAU
Intensity Multiplier,0.001
Wavelength(nm),254nm
R.Time (min),Intensity
0.00000,-7
0.00833,-7
0.01667,-3
0.02500,-5
0.03333,-5
0.04167,-3
0.05000,2
0.05833,8
0.06667,11
0.07500,11
0.08333,9
0.09167,5
0.10000,1
0.10833,0
0.11667,0
0.12500,3
0.13333,8
0.14167,10
0.15000,9
0.15833,7
0.16667,6
0.17500,8
0.18333,12
0.19167,16
0.20000,18
0.20833,16
0.21667,11
0.22500,5
0.23333,-0
0.24167,-4
0.25000,-8
0.25833,-11
0.26667,-12
0.27500,-9
0.28333,-5
0.29167,-1
0.30000,1
0.30833,-1
0.31667,-3
0.32500,-4
0.33333,-4
0.34167,-4
0.35000,-4
0.35833,-6
0.36667,-8
0.37500,-11
0.38333,-12
0.39167,-12
0.40000,-11
0.40833,-10
0.41667,-8
0.42500,-7
0.43333,-6
0.44167,-3
0.45000,-1
0.45833,1
0.46667,1
0.47500,-3
0.48333,-7
0.49167,-14
0.50000,-19
0.50833,-23
0.51667,-25
0.52500,-25
0.53333,-25
0.54167,-24
0.55000,-23
0.55833,-23
0.56667,-24
0.57500,-26
0.58333,-28
0.59167,-29
0.60000,-30
0.60833,-32
0.61667,-35
0.62500,-37
0.63333,-37
0.64167,-35
0.65000,-30
0.65833,-26
0.66667,-24
0.67500,-24
0.68333,-24
0.69167,-26
0.70000,-28
0.70833,-28
0.71667,-28
0.72500,-30
0.73333,-33
0.74167,-34
0.75000,-34
0.75833,-34
0.76667,-33
0.77500,-34
0.78333,-35
0.79167,-34
0.80000,-32
0.80833,-31
0.81667,-30
0.82500,-31
0.83333,-34
0.84167,-36
0.85000,-37
0.85833,-39
0.86667,-40
0.87500,-40
0.88333,-41
0.89167,-43
0.90000,-44
0.90833,-45
0.91667,-46
0.92500,-46
0.93333,-47
0.94167,-48
0.95000,-48
0.95833,-48
0.96667,-48
0.97500,-49
0.98333,-49
0.99167,-49
1.00000,-46
1.00833,-43
1.01667,-39
1.02500,-37
1.03333,-37
1.04167,-38
1.05000,-41
1.05833,-44
1.06667,-46
1.07500,-46
1.08333,-47
1.09167,-46
1.10000,-44
1.10833,-41
1.11667,-39
1.12500,-38
1.13333,-37
1.14167,-37
1.15000,-39
1.15833,-40
1.16667,-38
1.17500,-34
1.18333,-31
1.19167,-31
1.20000,-32
1.20833,-37
1.21667,-43
1.22500,-47
1.23333,-48
1.24167,-48
1.25000,-47
1.25833,-45
1.26667,-42
1.27500,-40
1.28333,-38
1.29167,-35
1.30000,-33
1.30833,-33
1.31667,-34
1.32500,-36
1.33333,-39
1.34167,-41
1.35000,-42
1.35833,-43
1.36667,-44
1.37500,-45
1.38333,-45
1.39167,-45
1.40000,-46
1.40833,-45
1.41667,-44
1.42500,-44
1.43333,-44
1.44167,-45
1.45000,-46
1.45833,-45
1.46667,-44
1.47500,-41
1.48333,-37
1.49167,-33
1.50000,-28
1.50833,-23
1.51667,-16
1.52500,-7
1.53333,4
1.54167,19
1.55000,43
1.55833,78
1.56667,132
1.57500,198
1.58333,269
1.59167,349
1.60000,409
1.60833,452
1.61667,485
1.62500,511
1.63333,540
1.64167,589
1.65000,660
1.65833,721
1.66667,760
1.67500,777
1.68333,754
1.69167,766
1.70000,1169
1.70833,2359
1.71667,8402
1.72500,24244
1.73333,49116
1.74167,81921
1.75000,125411
1.75833,165462
1.76667,200012
1.77500,229477
1.78333,247301
1.79167,258962
1.80000,265420
1.80833,268577
1.81667,270222
1.82500,271018
1.83333,271316
1.84167,270768
1.85000,269353
1.85833,267063
1.86667,263527
1.87500,259118
1.88333,254233
1.89167,248416
1.90000,242669
1.90833,236342
1.91667,229996
1.92500,223852
1.93333,217368
1.94167,211516
1.95000,205369
1.95833,199647
1.96667,194031
1.97500,188401
1.98333,183363
1.99167,178150
2.00000,173650
2.00833,169321
2.01667,165236
2.02500,161430
2.03333,157407
2.04167,153494
2.05000,149065
2.05833,144625
2.06667,139868
2.07500,134780
2.08333,129779
2.09167,124192
2.10000,118811
2.10833,112965
2.11667,106999
2.12500,100958
2.13333,94324
2.14167,87900
2.15000,80714
2.15833,73627
2.16667,66184
2.17500,58356
2.18333,50873
2.19167,42709
2.20000,35170
2.20833,27349
2.21667,19750
2.22500,12614
2.23333,5224
2.24167,-1319
2.25000,-8078
2.25833,-14250
2.26667,-20157
2.27500,-25997
2.28333,-31176
2.29167,-36529
2.30000,-41259
2.30833,-45964
2.31667,-50426
2.32500,-54518
2.33333,-58697
2.34167,-62369
2.35000,-66140
2.35833,-69585
2.36667,-72893
2.37500,-76154
2.38333,-79002
2.39167,-81894
2.40000,-84355
2.40833,-86680
2.41667,-88700
2.42500,-90234
2.43333,-91377
2.44167,-91401
2.45000,-90391
2.45833,-88553
2.46667,-85682
2.47500,-82211
2.48333,-78666
2.49167,-74672
2.50000,-70925
2.50833,-67009
2.51667,-63402
2.52500,-60470
2.53333,-57850
2.54167,-56156
2.55000,-55018
2.55833,-54381
2.56667,-54188
2.57500,-54245
2.58333,-54511
2.59167,-54944
2.60000,-55424
2.60833,-55990
2.61667,-56576
2.62500,-57162
2.63333,-57791
2.64167,-58364
2.65000,-58967
2.65833,-59510
2.66667,-60011
2.67500,-60448
2.68333,-60687
2.69167,-60738
2.70000,-60291
2.70833,-59201
2.71667,-57447
2.72500,-54721
2.73333,-51090
2.74167,-47031
2.75000,-42079
2.75833,-37162
2.76667,-32116
2.77500,-27035
2.78333,-22665
2.79167,-18341
2.80000,-14950
2.80833,-12117
2.81667,-9864
2.82500,-8359
2.83333,-7201
2.84167,-6473
2.85000,-5966
2.85833,-5620
2.86667,-5383
2.87500,-5199
2.88333,-5076
2.89167,-4982
2.90000,-4936
2.90833,-4933
2.91667,-4975
2.92500,-5080
2.93333,-5291
2.94167,-5753
2.95000,-6573
2.95833,-8095
2.96667,-10748
2.97500,-14655
2.98333,-20344
2.99167,-28225
3.00000,-37384
3.00833,-48926
3.01667,-61316
3.02500,-74087
3.03333,-87847
3.04167,-99819
3.05000,-111778
3.05833,-121856
3.06667,-130229
3.07500,-137482
3.08333,-142528
3.09167,-146580
3.10000,-149109
3.10833,-150511
3.11667,-151070
3.12500,-150680
3.13333,-149579
3.14167,-147753
3.15000,-145013
3.15833,-141511
3.16667,-136803
3.17500,-130966
3.18333,-124040
3.19167,-115379
3.20000,-106273
3.20833,-95663
3.21667,-84816
3.22500,-74268
3.23333,-63325
3.24167,-54242
3.25000,-45585
3.25833,-38552
3.26667,-32999
3.27500,-28318
3.28333,-25052
3.29167,-22361
3.30000,-20412
3.30833,-18863
3.31667,-17569
3.32500,-16498
3.33333,-15461
3.34167,-14556
3.35000,-13618
3.35833,-12748
3.36667,-11894
3.37500,-11036
3.38333,-10262
3.39167,-9452
3.40000,-8736
3.40833,-8023
3.41667,-7349
3.42500,-6737
3.43333,-6118
3.44167,-5584
3.45000,-5045
3.45833,-4562
3.46667,-4111
3.47500,-3675
3.48333,-3301
3.49167,-2925
3.50000,-2603
3.50833,-2296
3.51667,-2012
3.52500,-1759
3.53333,-1506
3.54167,-1292
3.55000,-1083
3.55833,-902
3.56667,-741
3.57500,-589
3.58333,-461
3.59167,-333
3.60000,-227
3.60833,-129
3.61667,-41
3.62500,31
3.63333,99
3.64167,155
3.65000,209
3.65833,254
3.66667,293
3.67500,329
3.68333,358
3.69167,385
3.70000,408
3.70833,427
3.71667,444
3.72500,456
3.73333,466
3.74167,473
3.75000,477
3.75833,482
3.76667,488
3.77500,495
3.78333,502
3.79167,511
3.80000,519
3.80833,528
3.81667,538
3.82500,548
3.83333,558
3.84167,566
3.85000,571
3.85833,574
3.86667,576
3.87500,578
3.88333,581
3.89167,585
3.90000,593
3.90833,603
3.91667,613
3.92500,621
3.93333,630
3.94167,637
3.95000,642
3.95833,646
3.96667,650
3.97500,655
3.98333,659
3.99167,662
4.00000,665
4.00833,669
4.01667,672
4.02500,676
4.03333,679
4.04167,684
4.05000,689
4.05833,692
4.06667,693
4.07500,694
4.08333,693
4.09167,692
4.10000,691
4.10833,689
4.11667,687
4.12500,684
4.13333,681
4.14167,677
4.15000,673
4.15833,669
4.16667,665
4.17500,662
4.18333,661
4.19167,662
4.20000,663
4.20833,662
4.21667,660
4.22500,658
4.23333,656
4.24167,654
4.25000,654
4.25833,653
4.26667,652
4.27500,651
4.28333,650
4.29167,650
4.30000,649
4.30833,649
4.31667,651
4.32500,653
4.33333,654
4.34167,656
4.35000,657
4.35833,659
4.36667,658
4.37500,656
4.38333,655
4.39167,656
4.40000,660
4.40833,665
4.41667,669
4.42500,672
4.43333,673
4.44167,673
4.45000,672
4.45833,669
4.46667,666
4.47500,662
4.48333,659
4.49167,659
4.50000,659
4.50833,659
4.51667,660
4.52500,660
4.53333,657
4.54167,655
4.55000,652
4.55833,650
4.56667,646
4.57500,642
4.58333,639
4.59167,637
4.60000,636
4.60833,636
4.61667,637
4.62500,638
4.63333,638
4.64167,638
4.65000,638
4.65833,636
4.66667,634
4.67500,630
4.68333,628
4.69167,628
4.70000,629
4.70833,629
4.71667,628
4.72500,626
4.73333,623
4.74167,621
4.75000,621
4.75833,622
4.76667,623
4.77500,623
4.78333,622
4.79167,619
4.80000,618
4.80833,621
4.81667,625
4.82500,628
4.83333,631
4.84167,633
4.85000,632
4.85833,630
4.86667,632
4.87500,637
4.88333,641
4.89167,645
4.90000,647
4.90833,646
4.91667,644
4.92500,642
4.93333,640
4.94167,638
4.95000,636
4.95833,632
4.96667,626
4.97500,617
4.98333,608
4.99167,598
5.00000,590
5.00833,584
5.01667,578
5.02500,574
5.03333,571
5.04167,573
5.05000,581
5.05833,601
5.06667,636
5.07500,690
5.08333,768
5.09167,881
5.10000,1038
5.10833,1262
5.11667,1548
5.12500,1924
5.13333,2406
5.14167,2965
5.15000,3671
5.15833,4438
5.16667,5327
5.17500,6315
5.18333,7315
5.19167,8447
5.20000,9511
5.20833,10625
5.21667,11698
5.22500,12678
5.23333,13661
5.24167,14472
5.25000,15246
5.25833,15879
5.26667,16384
5.27500,16804
5.28333,17066
5.29167,17243
5.30000,17302
5.30833,17253
5.31667,17131
5.32500,16934
5.33333,16674
5.34167,16395
5.35000,16066
5.35833,15736
5.36667,15388
5.37500,15027
5.38333,14694
5.39167,14345
5.40000,14042
5.40833,13751
5.41667,13485
5.42500,13253
5.43333,13025
5.44167,12829
5.45000,12632
5.45833,12447
5.46667,12260
5.47500,12058
5.48333,11848
5.49167,11600
5.50000,11337
5.50833,11021
5.51667,10674
5.52500,10291
5.53333,9852
5.54167,9415
5.55000,8917
5.55833,8430
5.56667,7929
5.57500,7415
5.58333,6946
5.59167,6454
5.60000,6022
5.60833,5600
5.61667,5210
5.62500,4872
5.63333,4543
5.64167,4272
5.65000,4013
5.65833,3792
5.66667,3600
5.67500,3424
5.68333,3287
5.69167,3161
5.70000,3064
5.70833,2987
5.71667,2927
5.72500,2890
5.73333,2865
5.74167,2859
5.75000,2869
5.75833,2893
5.76667,2934
5.77500,2987
5.78333,3046
5.79167,3119
5.80000,3201
5.80833,3302
5.81667,3414
5.82500,3538
5.83333,3679
5.84167,3817
5.85000,3972
5.85833,4127
5.86667,4295
5.87500,4475
5.88333,4655
5.89167,4860
5.90000,5057
5.90833,5273
5.91667,5493
5.92500,5714
5.93333,5954
5.94167,6183
5.95000,6434
5.95833,6681
5.96667,6941
5.97500,7217
5.98333,7484
5.99167,7780
6.00000,8059
6.00833,8358
6.01667,8659
6.02500,8961
6.03333,9289
6.04167,9601
6.05000,9944
6.05833,10275
6.06667,10613
6.07500,10964
6.08333,11296
6.09167,11657
6.10000,11997
6.10833,12358
6.11667,12719
6.12500,13071
6.13333,13446
6.14167,13792
6.15000,14165
6.15833,14520
6.16667,14880
6.17500,15251
6.18333,15600
6.19167,15978
6.20000,16329
6.20833,16698
6.21667,17063
6.22500,17418
6.23333,17796
6.24167,18145
6.25000,18520
6.25833,18878
6.26667,19239
6.27500,19610
6.28333,19958
6.29167,20336
6.30000,20685
6.30833,21048
6.31667,21406
6.32500,21749
6.33333,22112
6.34167,22447
6.35000,22805
6.35833,23145
6.36667,23483
6.37500,23829
6.38333,24150
6.39167,24493
6.40000,24808
6.40833,25133
6.41667,25452
6.42500,25757
6.43333,26080
6.44167,26376
6.45000,26690
6.45833,26983
6.46667,27269
6.47500,27558
6.48333,27819
6.49167,28092
6.50000,28336
6.50833,28580
6.51667,28813
6.52500,29028
6.53333,29249
6.54167,29445
6.55000,29648
6.55833,29833
6.56667,30009
6.57500,30180
6.58333,30329
6.59167,30481
6.60000,30612
6.60833,30739
6.61667,30858
6.62500,30964
6.63333,31070
6.64167,31161
6.65000,31250
6.65833,31329
6.66667,31401
6.67500,31470
6.68333,31524
6.69167,31575
6.70000,31617
6.70833,31653
6.71667,31684
6.72500,31709
6.73333,31731
6.74167,31744
6.75000,31752
6.75833,31753
6.76667,31745
6.77500,31733
6.78333,31716
6.79167,31695
6.80000,31670
6.80833,31639
6.81667,31604
6.82500,31563
6.83333,31515
6.84167,31468
6.85000,31414
6.85833,31360
6.86667,31301
6.87500,31236
6.88333,31172
6.89167,31101
6.90000,31030
6.90833,30951
6.91667,30869
6.92500,30785
6.93333,30693
6.94167,30606
6.95000,30515
6.95833,30427
6.96667,30336
6.97500,30240
6.98333,30142
6.99167,30030
7.00000,29923
7.00833,29808
7.01667,29692
7.02500,29582
7.03333,29465
7.04167,29356
7.05000,29235
7.05833,29118
7.06667,28999
7.07500,28876
7.08333,28757
7.09167,28626
7.10000,28502
7.10833,28370
7.11667,28239
7.12500,28113
7.13333,27982
7.14167,27861
7.15000,27732
7.15833,27607
7.16667,27478
7.17500,27343
7.18333,27216
7.19167,27078
7.20000,26950
7.20833,26818
7.21667,26686
7.22500,26556
7.23333,26416
7.24167,26285
7.25000,26143
7.25833,26008
7.26667,25871
7.27500,25731
7.28333,25601
7.29167,25461
7.30000,25333
7.30833,25198
7.31667,25063
7.32500,24929
7.33333,24786
7.34167,24655
7.35000,24515
7.35833,24382
7.36667,24246
7.37500,24104
7.38333,23968
7.39167,23818
7.40000,23679
7.40833,23538
7.41667,23399
7.42500,23265
7.43333,23122
7.44167,22989
7.45000,22845
7.45833,22706
7.46667,22564
7.47500,22415
7.48333,22273
7.49167,22117
7.50000,21971
7.50833,21814
7.51667,21657
7.52500,21503
7.53333,21339
7.54167,21188
7.55000,21028
7.55833,20876
7.56667,20723
7.57500,20566
7.58333,20417
7.59167,20255
7.60000,20105
7.60833,19948
7.61667,19792
7.62500,19642
7.63333,19485
7.64167,19339
7.65000,19182
7.65833,19031
7.66667,18875
7.67500,18712
7.68333,18560
7.69167,18397
7.70000,18248
7.70833,18093
7.71667,17940
7.72500,17790
7.73333,17628
7.74167,17478
7.75000,17316
7.75833,17161
7.76667,17007
7.77500,16852
7.78333,16709
7.79167,16556
7.80000,16411
7.80833,16256
7.81667,16102
7.82500,15951
7.83333,15790
7.84167,15641
7.85000,15483
7.85833,15333
7.86667,15183
7.87500,15029
7.88333,14884
7.89167,14728
7.90000,14585
7.90833,14439
7.91667,14298
7.92500,14164
7.93333,14023
7.94167,13892
7.95000,13750
7.95833,13616
7.96667,13484
7.97500,13352
7.98333,13231
7.99167,13103
8.00000,12984
8.00833,12858
8.01667,12731
8.02500,12604
8.03333,12467
8.04167,12337
8.05000,12197
8.05833,12062
8.06667,11929
8.07500,11795
8.08333,11674
8.09167,11549
8.10000,11439
8.10833,11334
8.11667,11239
8.12500,11161
8.13333,11068
8.14167,10971
8.15000,10887
8.15833,10812
8.16667,10725
8.17500,10624
8.18333,10511
8.19167,10374
8.20000,10238
8.20833,10088
8.21667,9931
8.22500,9777
8.23333,9599
8.24167,9418
8.25000,9261
8.25833,9130
8.26667,8991
8.27500,8844
8.28333,8710
8.29167,8560
8.30000,8404
8.30833,8270
8.31667,8159
8.32500,8048
8.33333,7912
8.34167,7772
8.35000,7652
8.35833,7550
8.36667,7439
8.37500,7321
8.38333,7210
8.39167,7090
8.40000,6979
8.40833,6863
8.41667,6731
8.42500,6609
8.43333,6503
8.44167,6407
8.45000,6316
8.45833,6239
8.46667,6163
8.47500,6087
8.48333,6016
8.49167,5940
8.50000,5872
8.50833,5808
8.51667,5731
8.52500,5659
8.53333,5601
8.54167,5545
8.55000,5477
8.55833,5406
8.56667,5326
8.57500,5238
8.58333,5148
8.59167,5039
8.60000,4918
8.60833,4805
8.61667,4707
8.62500,4601
8.63333,4477
8.64167,4356
8.65000,4220
8.65833,4071
8.66667,3937
8.67500,3826
8.68333,3718
8.69167,3593
8.70000,3472
8.70833,3346
8.71667,3222
8.72500,3106
8.73333,2973
8.74167,2840
8.75000,2725
8.75833,2630
8.76667,2528
8.77500,2417
8.78333,2310
8.79167,2194
8.80000,2091
8.80833,1993
8.81667,1874
8.82500,1762
8.83333,1670
8.84167,1593
8.85000,1506
8.85833,1399
8.86667,1297
8.87500,1212
8.88333,1133
8.89167,1042
8.90000,960
8.90833,880
8.91667,784
8.92500,695
8.93333,622
8.94167,555
8.95000,472
8.95833,377
8.96667,284
8.97500,203
8.98333,127
8.99167,41
9.00000,-38
9.00833,-118
9.01667,-196
9.02500,-264
9.03333,-331
9.04167,-387
9.05000,-440
9.05833,-490
9.06667,-537
9.07500,-586
9.08333,-634
9.09167,-687
9.10000,-742
9.10833,-804
9.11667,-870
9.12500,-943
9.13333,-1025
9.14167,-1102
9.15000,-1185
9.15833,-1257
9.16667,-1318
9.17500,-1371
9.18333,-1407
9.19167,-1434
9.20000,-1458
9.20833,-1483
9.21667,-1516
9.22500,-1567
9.23333,-1639
9.24167,-1731
9.25000,-1853
9.25833,-1987
9.26667,-2141
9.27500,-2312
9.28333,-2479
9.29167,-2661
9.30000,-2828
9.30833,-2994
9.31667,-3154
9.32500,-3297
9.33333,-3444
9.34167,-3570
9.35000,-3697
9.35833,-3813
9.36667,-3924
9.37500,-4034
9.38333,-4134
9.39167,-4239
9.40000,-4333
9.40833,-4428
9.41667,-4520
9.42500,-4608
9.43333,-4701
9.44167,-4786
9.45000,-4874
9.45833,-4958
9.46667,-5042
9.47500,-5129
9.48333,-5215
9.49167,-5312
9.50000,-5405
9.50833,-5503
9.51667,-5601
9.52500,-5695
9.53333,-5795
9.54167,-5887
9.55000,-5985
9.55833,-6079
9.56667,-6170
9.57500,-6262
9.58333,-6346
9.59167,-6433
9.60000,-6511
9.60833,-6589
9.61667,-6665
9.62500,-6741
9.63333,-6823
9.64167,-6904
9.65000,-6995
9.65833,-7085
9.66667,-7178
9.67500,-7277
9.68333,-7374
9.69167,-7480
9.70000,-7578
9.70833,-7680
9.71667,-7780
9.72500,-7870
9.73333,-7960
9.74167,-8039
9.75000,-8122
9.75833,-8200
9.76667,-8277
9.77500,-8356
9.78333,-8429
9.79167,-8506
9.80000,-8575
9.80833,-8643
9.81667,-8711
9.82500,-8778
9.83333,-8851
9.84167,-8924
9.85000,-9006
9.85833,-9088
9.86667,-9173
9.87500,-9262
9.88333,-9345
9.89167,-9433
9.90000,-9517
9.90833,-9603
9.91667,-9691
9.92500,-9780
9.93333,-9877
9.94167,-9970
9.95000,-10071
9.95833,-10171
9.96667,-10271
9.97500,-10375
9.98333,-10472
9.99167,-10577
10.00000,-10675
10.00833,-10774
10.01667,-10872
10.02500,-10963
10.03333,-11058
10.04167,-11144
10.05000,-11232
10.05833,-11314
10.06667,-11393
10.07500,-11475
10.08333,-11554
10.09167,-11641
10.10000,-11724
10.10833,-11814
10.11667,-11905
10.12500,-11992
10.13333,-12083
10.14167,-12163
10.15000,-12244
10.15833,-12321
10.16667,-12396
10.17500,-12474
10.18333,-12546
10.19167,-12624
10.20000,-12693
10.20833,-12760
10.21667,-12826
10.22500,-12892
10.23333,-12965
10.24167,-13037
10.25000,-13117
10.25833,-13195
10.26667,-13272
10.27500,-13350
10.28333,-13417
10.29167,-13485
10.30000,-13535
10.30833,-13572
10.31667,-13599
10.32500,-13612
10.33333,-13620
10.34167,-13630
10.35000,-13648
10.35833,-13681
10.36667,-13735
10.37500,-13809
10.38333,-13904
10.39167,-14028
10.40000,-14157
10.40833,-14300
10.41667,-14444
10.42500,-14578
10.43333,-14714
10.44167,-14833
10.45000,-14952
10.45833,-15060
10.46667,-15159
10.47500,-15256
10.48333,-15341
10.49167,-15430
10.50000,-15513
10.50833,-15600
10.51667,-15687
10.52500,-15768
10.53333,-15850
10.54167,-15914
10.55000,-15969
10.55833,-16001
10.56667,-16004
10.57500,-15981
10.58333,-15922
10.59167,-15829
10.60000,-15725
10.60833,-15602
10.61667,-15490
10.62500,-15418
10.63333,-15375
10.64167,-15398
10.65000,-15486
10.65833,-15617
10.66667,-15798
10.67500,-16012
10.68333,-16224
10.69167,-16458
10.70000,-16667
10.70833,-16867
10.71667,-17050
10.72500,-17199
10.73333,-17337
10.74167,-17442
10.75000,-17531
10.75833,-17605
10.76667,-17668
10.77500,-17733
10.78333,-17801
10.79167,-17882
10.80000,-17971
10.80833,-18077
10.81667,-18191
10.82500,-18305
10.83333,-18429
10.84167,-18539
10.85000,-18653
10.85833,-18757
10.86667,-18852
10.87500,-18943
10.88333,-19017
10.89167,-19088
10.90000,-19150
10.90833,-19211
10.91667,-19271
10.92500,-19327
10.93333,-19384
10.94167,-19431
10.95000,-19476
10.95833,-19513
10.96667,-19544
10.97500,-19572
10.98333,-19594
10.99167,-19614
11.00000,-19630
11.00833,-19643
11.01667,-19654
11.02500,-19660
11.03333,-19662
11.04167,-19663
11.05000,-19662
11.05833,-19664
11.06667,-19671
11.07500,-19685
11.08333,-19708
11.09167,-19741
11.10000,-19785
11.10833,-19847
11.11667,-19922
11.12500,-20012
11.13333,-20120
11.14167,-20232
11.15000,-20361
11.15833,-20487
11.16667,-20614
11.17500,-20745
11.18333,-20862
11.19167,-20984
11.20000,-21091
11.20833,-21194
11.21667,-21293
11.22500,-21388
11.23333,-21489
11.24167,-21590
11.25000,-21705
11.25833,-21819
11.26667,-21935
11.27500,-22054
11.28333,-22160
11.29167,-22267
11.30000,-22360
11.30833,-22447
11.31667,-22527
11.32500,-22597
11.33333,-22666
11.34167,-22724
11.35000,-22780
11.35833,-22827
11.36667,-22865
11.37500,-22897
11.38333,-22919
11.39167,-22936
11.40000,-22948
11.40833,-22958
11.41667,-22969
11.42500,-22979
11.43333,-22993
11.44167,-23016
11.45000,-23051
11.45833,-23101
11.46667,-23173
11.47500,-23266
11.48333,-23375
11.49167,-23509
11.50000,-23645
11.50833,-23797
11.51667,-23951
11.52500,-24096
11.53333,-24247
11.54167,-24376
11.55000,-24503
11.55833,-24615
11.56667,-24714
11.57500,-24809
11.58333,-24890
11.59167,-24972
11.60000,-25042
11.60833,-25109
11.61667,-25171
11.62500,-25230
11.63333,-25291
11.64167,-25348
11.65000,-25411
11.65833,-25474
11.66667,-25540
11.67500,-25611
11.68333,-25678
11.69167,-25751
11.70000,-25817
11.70833,-25882
11.71667,-25944
11.72500,-26002
11.73333,-26061
11.74167,-26111
11.75000,-26158
11.75833,-26201
11.76667,-26241
11.77500,-26279
11.78333,-26313
11.79167,-26349
11.80000,-26386
11.80833,-26428
11.81667,-26477
11.82500,-26537
11.83333,-26611
11.84167,-26692
11.85000,-26788
11.85833,-26888
11.86667,-26998
11.87500,-27116
11.88333,-27227
11.89167,-27346
11.90000,-27452
11.90833,-27554
11.91667,-27651
11.92500,-27739
11.93333,-27829
11.94167,-27911
11.95000,-27995
11.95833,-28073
11.96667,-28147
11.97500,-28221
11.98333,-28286
11.99167,-28351
12.00000,-28407
12.00833,-28462
12.01667,-28512
12.02500,-28552
12.03333,-28588
12.04167,-28612
12.05000,-28630
12.05833,-28642
12.06667,-28645
12.07500,-28643
12.08333,-28639
12.09167,-28635
12.10000,-28633
12.10833,-28633
12.11667,-28635
12.12500,-28638
12.13333,-28643
12.14167,-28651
12.15000,-28665
12.15833,-28685
12.16667,-28714
12.17500,-28751
12.18333,-28791
12.19167,-28839
12.20000,-28890
12.20833,-28949
12.21667,-29014
12.22500,-29083
12.23333,-29165
12.24167,-29251
12.25000,-29353
12.25833,-29463
12.26667,-29588
12.27500,-29724
12.28333,-29852
12.29167,-29988
12.30000,-30109
12.30833,-30225
12.31667,-30334
12.32500,-30432
12.33333,-30531
12.34167,-30613
12.35000,-30689
12.35833,-30744
12.36667,-30768
12.37500,-30766
12.38333,-30722
12.39167,-30639
12.40000,-30540
12.40833,-30419
12.41667,-30306
12.42500,-30228
12.43333,-30176
12.44167,-30181
12.45000,-30239
12.45833,-30329
12.46667,-30452
12.47500,-30591
12.48333,-30709
12.49167,-30821
12.50000,-30904
12.50833,-30965
12.51667,-31015
12.52500,-31059
12.53333,-31107
12.54167,-31170
12.55000,-31257
12.55833,-31361
12.56667,-31488
12.57500,-31632
12.58333,-31770
12.59167,-31921
12.60000,-32055
12.60833,-32187
12.61667,-32311
12.62500,-32421
12.63333,-32533
12.64167,-32633
12.65000,-32734
12.65833,-32826
12.66667,-32912
12.67500,-32997
12.68333,-33068
12.69167,-33138
12.70000,-33197
12.70833,-33248
12.71667,-33292
12.72500,-33328
12.73333,-33362
12.74167,-33397
12.75000,-33440
12.75833,-33489
12.76667,-33551
12.77500,-33623
12.78333,-33699
12.79167,-33785
12.80000,-33861
12.80833,-33931
12.81667,-33983
12.82500,-33999
12.83333,-33984
12.84167,-33917
12.85000,-33793
12.85833,-33615
12.86667,-33362
12.87500,-33036
12.88333,-32643
12.89167,-32138
12.90000,-31566
12.90833,-30854
12.91667,-30037
12.92500,-29102
12.93333,-27981
12.94167,-26790
12.95000,-25367
12.95833,-23908
12.96667,-22355
12.97500,-20735
12.98333,-19314
12.99167,-17894
13.00000,-16830
13.00833,-16053
13.01667,-15605
13.02500,-15666
13.03333,-16109
13.04167,-16938
13.05000,-18216
13.05833,-19679
13.06667,-21377
13.07500,-23239
13.08333,-24984
13.09167,-26845
13.10000,-28457
13.10833,-29971
13.11667,-31330
13.12500,-32426
13.13333,-33435
13.14167,-34191
13.15000,-34835
13.15833,-35326
13.16667,-35674
13.17500,-35939
13.18333,-36083
13.19167,-36158
13.20000,-36171
13.20833,-36129
13.21667,-36069
13.22500,-36016
13.23333,-35974
13.24167,-35980
13.25000,-36034
13.25833,-36124
13.26667,-36255
13.27500,-36412
13.28333,-36567
13.29167,-36738
13.30000,-36889
13.30833,-37032
13.31667,-37163
13.32500,-37274
13.33333,-37381
13.34167,-37474
13.35000,-37567
13.35833,-37652
13.36667,-37730
13.37500,-37797
13.38333,-37831
13.39167,-37839
13.40000,-37800
13.40833,-37702
13.41667,-37553
13.42500,-37336
13.43333,-37048
13.44167,-36720
13.45000,-36310
13.45833,-35884
13.46667,-35431
13.47500,-34951
13.48333,-34508
13.49167,-34021
13.50000,-33474
13.50833,-32771
13.51667,-31796
13.52500,-30340
13.53333,-28360
13.54167,-25998
13.55000,-22991
13.55833,-20089
13.56667,-17382
13.57500,-14955
13.58333,-13552
13.59167,-12784
13.60000,-12668
13.60833,-13141
13.61667,-13726
13.62500,-14098
13.63333,-14264
13.64167,-13995
13.65000,-13302
13.65833,-12589
13.66667,-11987
13.67500,-11618
13.68333,-11877
13.69167,-12682
13.70000,-13867
13.70833,-15537
13.71667,-17318
13.72500,-18963
13.73333,-20594
13.74167,-21794
13.75000,-22764
13.75833,-23530
13.76667,-24161
13.77500,-24815
13.78333,-25596
13.79167,-26609
13.80000,-27740
13.80833,-29121
13.81667,-30571
13.82500,-31976
13.83333,-33442
13.84167,-34655
13.85000,-35799
13.85833,-36734
13.86667,-37458
13.87500,-38042
13.88333,-38355
13.89167,-38485
13.90000,-38341
13.90833,-37884
13.91667,-37184
13.92500,-36196
13.93333,-34951
13.94167,-33742
13.95000,-32441
13.95833,-31397
13.96667,-30712
13.97500,-30314
13.98333,-30405
13.99167,-30871
14.00000,-31508
14.00833,-32331
14.01667,-33086
14.02500,-33541
14.03333,-33750
14.04167,-33453
14.05000,-32643
14.05833,-31528
14.06667,-30053
14.07500,-28437
14.08333,-27132
14.09167,-25985
14.10000,-25457
14.10833,-25580
14.11667,-26192
14.12500,-27367
14.13333,-28979
14.14167,-30612
14.15000,-32430
14.15833,-34028
14.16667,-35343
14.17500,-36422
14.18333,-36957
14.19167,-37121
14.20000,-36839
14.20833,-36069
14.21667,-35053
14.22500,-33880
14.23333,-32581
14.24167,-31622
14.25000,-30891
14.25833,-30560
14.26667,-30739
14.27500,-31239
14.28333,-31984
14.29167,-32975
14.30000,-33905
14.30833,-34825
14.31667,-35667
14.32500,-36351
14.33333,-36997
14.34167,-37547
14.35000,-38103
14.35833,-38646
14.36667,-39220
14.37500,-39839
14.38333,-40443
14.39167,-41115
14.40000,-41732
14.40833,-42352
14.41667,-42937
14.42500,-43443
14.43333,-43936
14.44167,-44335
14.45000,-44705
14.45833,-45015
14.46667,-45274
14.47500,-45510
14.48333,-45698
14.49167,-45876
14.50000,-46021
14.50833,-46150
14.51667,-46261
14.52500,-46348
14.53333,-46427
14.54167,-46490
14.55000,-46548
14.55833,-46604
14.56667,-46661
14.57500,-46725
14.58333,-46792
14.59167,-46871
14.60000,-46948
14.60833,-47028
14.61667,-47107
14.62500,-47181
14.63333,-47260
14.64167,-47333
14.65000,-47411
14.65833,-47488
14.66667,-47567
14.67500,-47651
14.68333,-47734
14.69167,-47824
14.70000,-47911
14.70833,-48005
14.71667,-48098
14.72500,-48184
14.73333,-48273
14.74167,-48348
14.75000,-48421
14.75833,-48482
14.76667,-48529
14.77500,-48566
14.78333,-48580
14.79167,-48578
14.80000,-48562
14.80833,-48534
14.81667,-48502
14.82500,-48469
14.83333,-48437
14.84167,-48421
14.85000,-48418
14.85833,-48434
14.86667,-48476
14.87500,-48538
14.88333,-48618
14.89167,-48720
14.90000,-48824
14.90833,-48937
14.91667,-49047
14.92500,-49145
14.93333,-49244
14.94167,-49328
14.95000,-49413
14.95833,-49490
14.96667,-49563
14.97500,-49635
14.98333,-49698
14.99167,-49761
15.00000,-49807
15.00833,-49837
15.01667,-49837
15.02500,-49784
15.03333,-49674
15.04167,-49478
15.05000,-49173
15.05833,-48806
15.06667,-48357
15.07500,-47870
15.08333,-47456
15.09167,-47064
15.10000,-46813
15.10833,-46698
15.11667,-46692
15.12500,-46817
15.13333,-47040
15.14167,-47316
15.15000,-47668
15.15833,-48034
15.16667,-48422
15.17500,-48831
15.18333,-49201
15.19167,-49588
15.20000,-49922
15.20833,-50239
15.21667,-50528
15.22500,-50770
15.23333,-51005
15.24167,-51198
15.25000,-51383
15.25833,-51543
15.26667,-51686
15.27500,-51821
15.28333,-51930
15.29167,-52032
15.30000,-52110
15.30833,-52172
15.31667,-52219
15.32500,-52245
15.33333,-52262
15.34167,-52277
15.35000,-52293
15.35833,-52319
15.36667,-52362
15.37500,-52420
15.38333,-52491
15.39167,-52580
15.40000,-52668
15.40833,-52765
15.41667,-52860
15.42500,-52947
15.43333,-53035
15.44167,-53111
15.45000,-53184
15.45833,-53253
15.46667,-53324
15.47500,-53398
15.48333,-53470
15.49167,-53548
15.50000,-53621
15.50833,-53694
15.51667,-53763
15.52500,-53821
15.53333,-53874
15.54167,-53902
15.55000,-53908
15.55833,-53886
15.56667,-53826
15.57500,-53741
15.58333,-53642
15.59167,-53525
15.60000,-53434
15.60833,-53370
15.61667,-53340
15.62500,-53369
15.63333,-53440
15.64167,-53536
15.65000,-53661
15.65833,-53777
15.66667,-53878
15.67500,-53966
15.68333,-54025
15.69167,-54072
15.70000,-54113
15.70833,-54159
15.71667,-54218
15.72500,-54299
15.73333,-54402
15.74167,-54512
15.75000,-54643
15.75833,-54772
15.76667,-54899
15.77500,-55028
15.78333,-55142
15.79167,-55258
15.80000,-55354
15.80833,-55442
15.81667,-55517
15.82500,-55569
15.83333,-55609
15.84167,-55631
15.85000,-55642
15.85833,-55650
15.86667,-55660
15.87500,-55677
15.88333,-55712
15.89167,-55765
15.90000,-55831
15.90833,-55919
15.91667,-56015
15.92500,-56111
15.93333,-56211
15.94167,-56288
15.95000,-56353
15.95833,-56392
15.96667,-56397
15.97500,-56378
15.98333,-56333
15.99167,-56264
16.00000,-56195
16.00833,-56123
16.01667,-56061
16.02500,-56022
16.03333,-56003
16.04167,-56021
16.05000,-56081
16.05833,-56174
16.06667,-56310
16.07500,-56476
16.08333,-56654
16.09167,-56862
16.10000,-57058
16.10833,-57260
16.11667,-57453
16.12500,-57622
16.13333,-57790
16.14167,-57928
16.15000,-58057
16.15833,-58166
16.16667,-58260
16.17500,-58346
16.18333,-58416
16.19167,-58483
16.20000,-58540
16.20833,-58595
16.21667,-58647
16.22500,-58695
16.23333,-58743
16.24167,-58785
16.25000,-58830
16.25833,-58873
16.26667,-58917
16.27500,-58962
16.28333,-59003
16.29167,-59047
16.30000,-59088
16.30833,-59131
16.31667,-59172
16.32500,-59210
16.33333,-59248
16.34167,-59282
16.35000,-59317
16.35833,-59350
16.36667,-59386
16.37500,-59425
16.38333,-59465
16.39167,-59511
16.40000,-59559
16.40833,-59616
16.41667,-59677
16.42500,-59744
16.43333,-59819
16.44167,-59892
16.45000,-59971
16.45833,-60047
16.46667,-60122
16.47500,-60199
16.48333,-60269
16.49167,-60343
16.50000,-60409
16.50833,-60473
16.51667,-60533
16.52500,-60588
16.53333,-60644
16.54167,-60694
16.55000,-60747
16.55833,-60795
16.56667,-60839
16.57500,-60881
16.58333,-60916
16.59167,-60947
16.60000,-60971
16.60833,-60992
16.61667,-61009
16.62500,-61020
16.63333,-61031
16.64167,-61040
16.65000,-61050
16.65833,-61061
16.66667,-61076
16.67500,-61096
16.68333,-61119
16.69167,-61150
16.70000,-61189
16.70833,-61244
16.71667,-61310
16.72500,-61387
16.73333,-61480
16.74167,-61573
16.75000,-61679
16.75833,-61783
16.76667,-61886
16.77500,-61991
16.78333,-62081
16.79167,-62170
16.80000,-62242
16.80833,-62302
16.81667,-62352
16.82500,-62391
16.83333,-62429
16.84167,-62470
16.85000,-62519
16.85833,-62573
16.86667,-62634
16.87500,-62699
16.88333,-62759
16.89167,-62821
16.90000,-62871
16.90833,-62912
16.91667,-62946
16.92500,-62969
16.93333,-62987
16.94167,-63005
16.95000,-63026
16.95833,-63049
16.96667,-63075
16.97500,-63103
16.98333,-63130
16.99167,-63158
17.00000,-63184
17.00833,-63208
17.01667,-63230
17.02500,-63252
17.03333,-63276
17.04167,-63301
17.05000,-63331
17.05833,-63367
17.06667,-63412
17.07500,-63465
17.08333,-63524
17.09167,-63594
17.10000,-63665
17.10833,-63745
17.11667,-63830
17.12500,-63919
17.13333,-64019
17.14167,-64117
17.15000,-64224
17.15833,-64331
17.16667,-64439
17.17500,-64550
17.18333,-64651
17.19167,-64755
17.20000,-64847
17.20833,-64937
17.21667,-65021
17.22500,-65096
17.23333,-65170
17.24167,-65235
17.25000,-65301
17.25833,-65363
17.26667,-65425
17.27500,-65487
17.28333,-65543
17.29167,-65604
17.30000,-65661
17.30833,-65718
17.31667,-65776
17.32500,-65831
17.33333,-65891
17.34167,-65948
17.35000,-66010
17.35833,-66070
17.36667,-66130
17.37500,-66190
17.38333,-66243
17.39167,-66298
17.40000,-66349
17.40833,-66402
17.41667,-66454
17.42500,-66502
17.43333,-66552
17.44167,-66593
17.45000,-66631
17.45833,-66666
17.46667,-66698
17.47500,-66730
17.48333,-66757
17.49167,-66782
17.50000,-66801
17.50833,-66812
17.51667,-66817
17.52500,-66811
17.53333,-66797
17.54167,-66774
17.55000,-66741
17.55833,-66707
17.56667,-66675
17.57500,-66649
17.58333,-66644
17.59167,-66661
17.60000,-66706
17.60833,-66786
17.61667,-66885
17.62500,-67003
17.63333,-67141
17.64167,-67276
17.65000,-67424
17.65833,-67564
17.66667,-67700
17.67500,-67834
17.68333,-67945
17.69167,-68052
17.70000,-68140
17.70833,-68217
17.71667,-68286
17.72500,-68341
17.73333,-68392
17.74167,-68431
17.75000,-68464
17.75833,-68489
17.76667,-68503
17.77500,-68511
17.78333,-68513
17.79167,-68510
17.80000,-68506
17.80833,-68505
17.81667,-68508
17.82500,-68523
17.83333,-68551
17.84167,-68592
17.85000,-68650
17.85833,-68709
17.86667,-68770
17.87500,-68829
17.88333,-68871
17.89167,-68903
17.90000,-68916
17.90833,-68913
17.91667,-68895
17.92500,-68863
17.93333,-68824
17.94167,-68794
17.95000,-68772
17.95833,-68770
17.96667,-68798
17.97500,-68850
17.98333,-68926
17.99167,-69027
18.00000,-69134
18.00833,-69257
18.01667,-69382
18.02500,-69502
18.03333,-69628
18.04167,-69735
18.05000,-69839
18.05833,-69931
18.06667,-70014
18.07500,-70096
18.08333,-70175
18.09167,-70263
18.10000,-70348
18.10833,-70440
18.11667,-70533
18.12500,-70619
18.13333,-70708
18.14167,-70785
18.15000,-70861
18.15833,-70932
18.16667,-71000
18.17500,-71068
18.18333,-71125
18.19167,-71181
18.20000,-71228
18.20833,-71271
18.21667,-71311
18.22500,-71349
18.23333,-71389
18.24167,-71428
18.25000,-71473
18.25833,-71521
18.26667,-71577
18.27500,-71639
18.28333,-71702
18.29167,-71773
18.30000,-71839
18.30833,-71905
18.31667,-71968
18.32500,-72025
18.33333,-72084
18.34167,-72132
18.35000,-72178
18.35833,-72214
18.36667,-72237
18.37500,-72251
18.38333,-72253
18.39167,-72244
18.40000,-72223
18.40833,-72185
18.41667,-72131
18.42500,-72059
18.43333,-71968
18.44167,-71870
18.45000,-71752
18.45833,-71636
18.46667,-71520
18.47500,-71406
18.48333,-71323
18.49167,-71258
18.50000,-71235
18.50833,-71256
18.51667,-71315
18.52500,-71422
18.53333,-71571
18.54167,-71741
18.55000,-71949
18.55833,-72159
18.56667,-72374
18.57500,-72595
18.58333,-72789
18.59167,-72987
18.60000,-73153
18.60833,-73302
18.61667,-73435
18.62500,-73542
18.63333,-73640
18.64167,-73721
18.65000,-73797
18.65833,-73866
18.66667,-73930
18.67500,-73993
18.68333,-74049
18.69167,-74110
18.70000,-74168
18.70833,-74228
18.71667,-74288
18.72500,-74345
18.73333,-74405
18.74167,-74460
18.75000,-74518
18.75833,-74571
18.76667,-74621
18.77500,-74670
18.78333,-74713
18.79167,-74756
18.80000,-74793
18.80833,-74826
18.81667,-74859
18.82500,-74891
18.83333,-74925
18.84167,-74959
18.85000,-75000
18.85833,-75040
18.86667,-75078
18.87500,-75117
18.88333,-75155
18.89167,-75197
18.90000,-75239
18.90833,-75286
18.91667,-75334
18.92500,-75379
18.93333,-75427
18.94167,-75472
18.95000,-75520
18.95833,-75566
18.96667,-75612
18.97500,-75658
18.98333,-75696
18.99167,-75732
19.00000,-75762
19.00833,-75789
19.01667,-75816
19.02500,-75842
19.03333,-75871
19.04167,-75901
19.05000,-75936
19.05833,-75977
19.06667,-76028
19.07500,-76089
19.08333,-76158
19.09167,-76241
19.10000,-76324
19.10833,-76414
19.11667,-76504
19.12500,-76585
19.13333,-76666
19.14167,-76734
19.15000,-76799
19.15833,-76856
19.16667,-76907
19.17500,-76956
19.18333,-76999
19.19167,-77044
19.20000,-77086
19.20833,-77132
19.21667,-77179
19.22500,-77228
19.23333,-77281
19.24167,-77331
19.25000,-77389
19.25833,-77461
19.26667,-77529
19.27500,-77585
19.28333,-77636
19.29167,-77691
19.30000,-77742
19.30833,-77793
19.31667,-77844
19.32500,-77891
19.33333,-77939
19.34167,-77982
19.35000,-78029
19.35833,-78081
19.36667,-78130
19.37500,-78170
19.38333,-78208
19.39167,-78258
19.40000,-78320
19.40833,-78376
19.41667,-78422
19.42500,-78467
19.43333,-78523
19.44167,-78582
19.45000,-78633
19.45833,-78677
19.46667,-78720
19.47500,-78773
19.48333,-78826
19.49167,-78873
19.50000,-78915
19.50833,-78962
19.51667,-79010
19.52500,-79056
19.53333,-79107
19.54167,-79159
19.55000,-79207
19.55833,-79247
19.56667,-79287
19.57500,-79329
19.58333,-79360
19.59167,-79383
19.60000,-79380
19.60833,-79340
19.61667,-79238
19.62500,-79050
19.63333,-78753
19.64167,-78302
19.65000,-77715
19.65833,-77037
19.66667,-76174
19.67500,-75080
19.68333,-74031
19.69167,-73208
19.70000,-72726
19.70833,-72461
19.71667,-72398
19.72500,-72672
19.73333,-73302
19.74167,-74145
19.75000,-75035
19.75833,-75837
19.76667,-76650
19.77500,-77569
19.78333,-78361
19.79167,-78906
19.80000,-79257
19.80833,-79564
19.81667,-79837
19.82500,-80038
19.83333,-80212
19.84167,-80340
19.85000,-80448
19.85833,-80549
19.86667,-80627
19.87500,-80682
19.88333,-80727
19.89167,-80776
19.90000,-80820
19.90833,-80862
19.91667,-80907
19.92500,-80947
19.93333,-80979
19.94167,-81010
19.95000,-81044
19.95833,-81079
19.96667,-81117
19.97500,-81161
19.98333,-81205
19.99167,-81256
20.00000,-81309
20.00833,-81366
20.01667,-81427
20.02500,-81486
20.03333,-81551
20.04167,-81611
20.05000,-81675
20.05833,-81735
20.06667,-81790
20.07500,-81846
20.08333,-81894
20.09167,-81928
20.10000,-81952
20.10833,-81977
20.11667,-82007
20.12500,-82037
20.13333,-82063
20.14167,-82095
20.15000,-82140
20.15833,-82199
20.16667,-82262
20.17500,-82325
20.18333,-82390
20.19167,-82470
20.20000,-82550
20.20833,-82635
20.21667,-82718
20.22500,-82794
20.23333,-82871
20.24167,-82936
20.25000,-83000
20.25833,-83058
20.26667,-83111
20.27500,-83162
20.28333,-83204
20.29167,-83243
20.30000,-83272
20.30833,-83293
20.31667,-83308
20.32500,-83317
20.33333,-83324
20.34167,-83332
20.35000,-83344
20.35833,-83362
20.36667,-83388
20.37500,-83420
20.38333,-83460
20.39167,-83510
20.40000,-83566
20.40833,-83631
20.41667,-83702
20.42500,-83775
20.43333,-83857
20.44167,-83934
20.45000,-84016
20.45833,-84096
20.46667,-84174
20.47500,-84252
20.48333,-84319
20.49167,-84387
20.50000,-84447
20.50833,-84504
20.51667,-84559
20.52500,-84608
20.53333,-84658
20.54167,-84702
20.55000,-84743
20.55833,-84779
20.56667,-84808
20.57500,-84833
20.58333,-84850
20.59167,-84864
20.60000,-84878
20.60833,-84896
20.61667,-84918
20.62500,-84946
20.63333,-84983
20.64167,-85028
20.65000,-85086
20.65833,-85150
20.66667,-85222
20.67500,-85301
20.68333,-85381
20.69167,-85471
20.70000,-85555
20.70833,-85640
20.71667,-85720
20.72500,-85786
20.73333,-85849
20.74167,-85903
20.75000,-85957
20.75833,-86007
20.76667,-86052
20.77500,-86092
20.78333,-86119
20.79167,-86138
20.80000,-86149
20.80833,-86152
20.81667,-86151
20.82500,-86148
20.83333,-86145
20.84167,-86144
20.85000,-86147
20.85833,-86158
20.86667,-86180
20.87500,-86208
20.88333,-86238
20.89167,-86269
20.90000,-86285
20.90833,-86282
20.91667,-86248
20.92500,-86161
20.93333,-86019
20.94167,-85814
20.95000,-85519
20.95833,-85169
20.96667,-84740
20.97500,-84246
20.98333,-83751
20.99167,-83200
21.00000,-82722
21.00833,-82291
21.01667,-81943
21.02500,-81761
21.03333,-81690
21.04167,-81782
21.05000,-82036
21.05833,-82389
21.06667,-82857
21.07500,-83409
21.08333,-83958
21.09167,-84570
21.10000,-85120
21.10833,-85650
21.11667,-86140
21.12500,-86540
21.13333,-86915
21.14167,-87205
21.15000,-87460
21.15833,-87670
21.16667,-87840
21.17500,-87993
21.18333,-88112
21.19167,-88219
21.20000,-88303
21.20833,-88373
21.21667,-88432
21.22500,-88477
21.23333,-88514
21.24167,-88537
21.25000,-88548
21.25833,-88545
21.26667,-88522
21.27500,-88484
21.28333,-88434
21.29167,-88372
21.30000,-88303
21.30833,-88221
21.31667,-88130
21.32500,-88033
21.33333,-87925
21.34167,-87834
21.35000,-87747
21.35833,-87688
21.36667,-87669
21.37500,-87685
21.38333,-87751
21.39167,-87865
21.40000,-88009
21.40833,-88195
21.41667,-88401
21.42500,-88610
21.43333,-88838
21.44167,-89037
21.45000,-89234
21.45833,-89406
21.46667,-89551
21.47500,-89684
21.48333,-89787
21.49167,-89880
21.50000,-89953
21.50833,-90017
21.51667,-90074
21.52500,-90121
21.53333,-90167
21.54167,-90202
21.55000,-90233
21.55833,-90257
21.56667,-90275
21.57500,-90290
21.58333,-90304
21.59167,-90319
21.60000,-90337
21.60833,-90362
21.61667,-90392
21.62500,-90430
21.63333,-90479
21.64167,-90532
21.65000,-90596
21.65833,-90663
21.66667,-90735
21.67500,-90814
21.68333,-90887
21.69167,-90964
21.70000,-91035
21.70833,-91104
21.71667,-91171
21.72500,-91233
21.73333,-91296
21.74167,-91351
21.75000,-91404
21.75833,-91452
21.76667,-91495
21.77500,-91537
21.78333,-91575
21.79167,-91615
21.80000,-91652
21.80833,-91690
21.81667,-91726
21.82500,-91756
21.83333,-91784
21.84167,-91806
21.85000,-91823
21.85833,-91837
21.86667,-91850
21.87500,-91864
21.88333,-91877
21.89167,-91890
21.90000,-91901
21.90833,-91909
21.91667,-91916
21.92500,-91923
21.93333,-91929
21.94167,-91931
21.95000,-91930
21.95833,-91929
21.96667,-91931
21.97500,-91938
21.98333,-91952
21.99167,-91973
22.00000,-92001
22.00833,-92037
22.01667,-92081
22.02500,-92135
22.03333,-92199
22.04167,-92267
22.05000,-92345
22.05833,-92426
22.06667,-92511
22.07500,-92602
22.08333,-92687
22.09167,-92777
22.10000,-92858
22.10833,-92936
22.11667,-93010
22.12500,-93074
22.13333,-93135
22.14167,-93183
22.15000,-93226
22.15833,-93260
22.16667,-93283
22.17500,-93300
22.18333,-93309
22.19167,-93310
22.20000,-93307
22.20833,-93301
22.21667,-93297
22.22500,-93301
22.23333,-93312
22.24167,-93333
22.25000,-93368
22.25833,-93415
22.26667,-93476
22.27500,-93550
22.28333,-93631
22.29167,-93729
22.30000,-93825
22.30833,-93926
22.31667,-94026
22.32500,-94117
22.33333,-94209
22.34167,-94286
22.35000,-94359
22.35833,-94424
22.36667,-94482
22.37500,-94537
22.38333,-94582
22.39167,-94624
22.40000,-94658
22.40833,-94688
22.41667,-94714
22.42500,-94735
22.43333,-94753
22.44167,-94767
22.45000,-94779
22.45833,-94788
22.46667,-94793
22.47500,-94793
22.48333,-94790
22.49167,-94782
22.50000,-94779
22.50833,-94785
22.51667,-94801
22.52500,-94835
22.53333,-94884
22.54167,-94943
22.55000,-95018
22.55833,-95097
22.56667,-95184
22.57500,-95277
22.58333,-95365
22.59167,-95460
22.60000,-95547
22.60833,-95633
22.61667,-95716
22.62500,-95792
22.63333,-95871
22.64167,-95939
22.65000,-96004
22.65833,-96064
22.66667,-96118
22.67500,-96173
22.68333,-96224
22.69167,-96279
22.70000,-96328
22.70833,-96377
22.71667,-96425
22.72500,-96468
22.73333,-96513
22.74167,-96556
22.75000,-96603
22.75833,-96651
22.76667,-96700
22.77500,-96750
22.78333,-96796
22.79167,-96842
22.80000,-96885
22.80833,-96930
22.81667,-96974
22.82500,-97017
22.83333,-97065
22.84167,-97109
22.85000,-97154
22.85833,-97195
22.86667,-97231
22.87500,-97265
22.88333,-97294
22.89167,-97322
22.90000,-97349
22.90833,-97375
22.91667,-97401
22.92500,-97428
22.93333,-97456
22.94167,-97477
22.95000,-97492
22.95833,-97494
22.96667,-97476
22.97500,-97440
22.98333,-97380
22.99167,-97293
23.00000,-97183
23.00833,-97037
23.01667,-96874
23.02500,-96706
23.03333,-96528
23.04167,-96390
23.05000,-96276
23.05833,-96210
23.06667,-96213
23.07500,-96270
23.08333,-96391
23.09167,-96575
23.10000,-96784
23.10833,-97032
23.11667,-97291
23.12500,-97534
23.13333,-97783
23.14167,-97989
23.15000,-98181
23.15833,-98345
23.16667,-98479
23.17500,-98600
23.18333,-98689
23.19167,-98767
23.20000,-98827
23.20833,-98874
23.21667,-98910
23.22500,-98932
23.23333,-98947
23.24167,-98948
23.25000,-98937
23.25833,-98915
23.26667,-98880
23.27500,-98834
23.28333,-98780
23.29167,-98714
23.30000,-98654
23.30833,-98598
23.31667,-98553
23.32500,-98533
23.33333,-98533
23.34167,-98557
23.35000,-98606
23.35833,-98670
23.36667,-98753
23.37500,-98852
23.38333,-98954
23.39167,-99073
23.40000,-99186
23.40833,-99303
23.41667,-99417
23.42500,-99514
23.43333,-99609
23.44167,-99686
23.45000,-99756
23.45833,-99817
23.46667,-99872
23.47500,-99926
23.48333,-99975
23.49167,-100026
23.50000,-100076
23.50833,-100131
23.51667,-100189
23.52500,-100251
23.53333,-100322
23.54167,-100392
23.55000,-100471
23.55833,-100550
23.56667,-100629
23.57500,-100709
23.58333,-100779
23.59167,-100850
23.60000,-100911
23.60833,-100967
23.61667,-101017
23.62500,-101057
23.63333,-101094
23.64167,-101124
23.65000,-101151
23.65833,-101171
23.66667,-101184
23.67500,-101195
23.68333,-101201
23.69167,-101205
23.70000,-101208
23.70833,-101211
23.71667,-101214
23.72500,-101213
23.73333,-101206
23.74167,-101192
23.75000,-101171
23.75833,-101148
23.76667,-101122
23.77500,-101096
23.78333,-101081
23.79167,-101075
23.80000,-101082
23.80833,-101105
23.81667,-101139
23.82500,-101183
23.83333,-101237
23.84167,-101287
23.85000,-101338
23.85833,-101380
23.86667,-101409
23.87500,-101429
23.88333,-101437
23.89167,-101437
23.90000,-101439
23.90833,-101446
23.91667,-101465
23.92500,-101504
23.93333,-101563
23.94167,-101640
23.95000,-101743
23.95833,-101857
23.96667,-101986
23.97500,-102127
23.98333,-102260
23.99167,-102403
24.00000,-102530
24.00833,-102653
24.01667,-102767
24.02500,-102862
24.03333,-102952
24.04167,-103025
24.05000,-103092
24.05833,-103151
24.06667,-103203
24.07500,-103255
24.08333,-103300
24.09167,-103347
24.10000,-103391
24.10833,-103436
24.11667,-103482
24.12500,-103524
24.13333,-103568
24.14167,-103607
24.15000,-103646
24.15833,-103683
24.16667,-103719
24.17500,-103758
24.18333,-103795
24.19167,-103837
24.20000,-103874
24.20833,-103906
24.21667,-103935
24.22500,-103960
24.23333,-103987
24.24167,-104014
24.25000,-104045
24.25833,-104075
24.26667,-104106
24.27500,-104138
24.28333,-104169
24.29167,-104203
24.30000,-104236
24.30833,-104271
24.31667,-104306
24.32500,-104336
24.33333,-104364
24.34167,-104382
24.35000,-104394
24.35833,-104399
24.36667,-104391
24.37500,-104373
24.38333,-104345
24.39167,-104306
24.40000,-104266
24.40833,-104223
24.41667,-104186
24.42500,-104166
24.43333,-104158
24.44167,-104173
24.45000,-104211
24.45833,-104267
24.46667,-104345
24.47500,-104442
24.48333,-104547
24.49167,-104672
24.50000,-104791
24.50833,-104914
24.51667,-105034
24.52500,-105137
24.53333,-105238
24.54167,-105322
24.55000,-105403
24.55833,-105476
24.56667,-105540
24.57500,-105602
24.58333,-105650
24.59167,-105696
24.60000,-105738
24.60833,-105778
24.61667,-105818
24.62500,-105857
24.63333,-105900
24.64167,-105939
24.65000,-105981
24.65833,-106022
24.66667,-106064
24.67500,-106110
24.68333,-106154
24.69167,-106204
24.70000,-106250
24.70833,-106297
24.71667,-106343
24.72500,-106383
24.73333,-106423
24.74167,-106458
24.75000,-106494
24.75833,-106528
24.76667,-106562
24.77500,-106597
24.78333,-106629
24.79167,-106660
24.80000,-106691
24.80833,-106725
24.81667,-106761
24.82500,-106799
24.83333,-106839
24.84167,-106874
24.85000,-106908
24.85833,-106940
24.86667,-106971
24.87500,-107005
24.88333,-107040
24.89167,-107080
24.90000,-107119
24.90833,-107161
24.91667,-107204
24.92500,-107246
24.93333,-107289
24.94167,-107329
24.95000,-107371
24.95833,-107413
24.96667,-107457
24.97500,-107503
24.98333,-107546
24.99167,-107589
25.00000,-107630
25.00833,-107672
25.01667,-107717
25.02500,-107763
25.03333,-107813
25.04167,-107858
25.05000,-107904
25.05833,-107948
25.06667,-107991
25.07500,-108034
25.08333,-108073
25.09167,-108114
25.10000,-108150
25.10833,-108186
25.11667,-108221
25.12500,-108257
25.13333,-108296
25.14167,-108333
25.15000,-108374
25.15833,-108415
25.16667,-108456
25.17500,-108499
25.18333,-108540
25.19167,-108584
25.20000,-108625
25.20833,-108665
25.21667,-108704
25.22500,-108742
25.23333,-108784
25.24167,-108823
25.25000,-108866
25.25833,-108906
25.26667,-108946
25.27500,-108988
25.28333,-109028
25.29167,-109071
25.30000,-109109
25.30833,-109144
25.31667,-109179
25.32500,-109213
25.33333,-109251
25.34167,-109288
25.35000,-109328
25.35833,-109368
25.36667,-109405
25.37500,-109442
25.38333,-109473
25.39167,-109505
25.40000,-109537
25.40833,-109570
25.41667,-109604
25.42500,-109637
25.43333,-109672
25.44167,-109701
25.45000,-109730
25.45833,-109759
25.46667,-109790
25.47500,-109825
25.48333,-109862
25.49167,-109905
25.50000,-109946
25.50833,-109986
25.51667,-110027
25.52500,-110066
25.53333,-110107
25.54167,-110144
25.55000,-110182
25.55833,-110218
25.56667,-110248
25.57500,-110276
25.58333,-110296
25.59167,-110314
25.60000,-110327
25.60833,-110336
25.61667,-110345
25.62500,-110354
25.63333,-110364
25.64167,-110378
25.65000,-110396
25.65833,-110421
25.66667,-110457
25.67500,-110502
25.68333,-110552
25.69167,-110612
25.70000,-110670
25.70833,-110731
25.71667,-110792
25.72500,-110851
25.73333,-110915
25.74167,-110973
25.75000,-111033
25.75833,-111090
25.76667,-111142
25.77500,-111193
25.78333,-111235
25.79167,-111274
25.80000,-111303
25.80833,-111324
25.81667,-111339
25.82500,-111344
25.83333,-111342
25.84167,-111334
25.85000,-111321
25.85833,-111305
25.86667,-111287
25.87500,-111268
25.88333,-111255
25.89167,-111248
25.90000,-111252
25.90833,-111273
25.91667,-111308
25.92500,-111361
25.93333,-111430
25.94167,-111506
25.95000,-111598
25.95833,-111690
25.96667,-111780
25.97500,-111871
25.98333,-111950
25.99167,-112029
26.00000,-112098
26.00833,-112163
26.01667,-112222
26.02500,-112273
26.03333,-112324
26.04167,-112369
26.05000,-112415
26.05833,-112457
26.06667,-112496
26.07500,-112534
26.08333,-112570
26.09167,-112609
26.10000,-112646
26.10833,-112685
26.11667,-112724
26.12500,-112758
26.13333,-112791
26.14167,-112819
26.15000,-112847
26.15833,-112876
26.16667,-112905
26.17500,-112937
26.18333,-112968
26.19167,-113003
26.20000,-113039
26.20833,-113076
26.21667,-113113
26.22500,-113147
26.23333,-113183
26.24167,-113214
26.25000,-113245
26.25833,-113274
26.26667,-113304
26.27500,-113336
26.28333,-113366
26.29167,-113397
26.30000,-113426
26.30833,-113454
26.31667,-113481
26.32500,-113508
26.33333,-113539
26.34167,-113570
26.35000,-113607
26.35833,-113644
26.36667,-113684
26.37500,-113727
26.38333,-113770
26.39167,-113818
26.40000,-113865
26.40833,-113917
26.41667,-113971
26.42500,-114022
26.43333,-114076
26.44167,-114122
26.45000,-114169
26.45833,-114211
26.46667,-114251
26.47500,-114289
26.48333,-114323
26.49167,-114359
26.50000,-114393
26.50833,-114428
26.51667,-114463
26.52500,-114497
26.53333,-114533
26.54167,-114564
26.55000,-114596
26.55833,-114626
26.56667,-114654
26.57500,-114683
26.58333,-114711
26.59167,-114742
26.60000,-114774
26.60833,-114810
26.61667,-114847
26.62500,-114880
26.63333,-114913
26.64167,-114938
26.65000,-114956
26.65833,-114965
26.66667,-114963
26.67500,-114950
26.68333,-114921
26.69167,-114875
26.70000,-114819
26.70833,-114749
26.71667,-114672
26.72500,-114597
26.73333,-114519
26.74167,-114462
26.75000,-114418
26.75833,-114402
26.76667,-114422
26.77500,-114470
26.78333,-114548
26.79167,-114658
26.80000,-114778
26.80833,-114917
26.81667,-115062
26.82500,-115198
26.83333,-115339
26.84167,-115457
26.85000,-115568
26.85833,-115665
26.86667,-115746
26.87500,-115821
26.88333,-115879
26.89167,-115934
26.90000,-115980
26.90833,-116023
26.91667,-116065
26.92500,-116105
26.93333,-116147
26.94167,-116183
26.95000,-116217
26.95833,-116246
26.96667,-116270
26.97500,-116292
26.98333,-116310
26.99167,-116327
27.00000,-116342
27.00833,-116354
27.01667,-116367
27.02500,-116382
27.03333,-116401
27.04167,-116426
27.05000,-116458
27.05833,-116494
27.06667,-116535
27.07500,-116580
27.08333,-116624
27.09167,-116674
27.10000,-116720
27.10833,-116769
27.11667,-116817
27.12500,-116862
27.13333,-116910
27.14167,-116953
27.15000,-116996
27.15833,-117036
27.16667,-117073
27.17500,-117109
27.18333,-117140
27.19167,-117171
27.20000,-117201
27.20833,-117231
27.21667,-117260
27.22500,-117286
27.23333,-117314
27.24167,-117340
27.25000,-117367
27.25833,-117394
27.26667,-117423
27.27500,-117453
27.28333,-117483
27.29167,-117516
27.30000,-117551
27.30833,-117592
27.31667,-117635
27.32500,-117677
27.33333,-117723
27.34167,-117762
27.35000,-117799
27.35833,-117832
27.36667,-117862
27.37500,-117892
27.38333,-117920
27.39167,-117952
27.40000,-117984
27.40833,-118020
27.41667,-118056
27.42500,-118090
27.43333,-118127
27.44167,-118164
27.45000,-118207
27.45833,-118249
27.46667,-118289
27.47500,-118330
27.48333,-118365
27.49167,-118400
27.50000,-118430
27.50833,-118459
27.51667,-118486
27.52500,-118507
27.53333,-118527
27.54167,-118540
27.55000,-118549
27.55833,-118550
27.56667,-118541
27.57500,-118523
27.58333,-118498
27.59167,-118465
27.60000,-118430
27.60833,-118390
27.61667,-118352
27.62500,-118319
27.63333,-118289
27.64167,-118278
27.65000,-118288
27.65833,-118318
27.66667,-118375
27.67500,-118451
27.68333,-118538
27.69167,-118642
27.70000,-118746
27.70833,-118856
27.71667,-118966
27.72500,-119067
27.73333,-119171
27.74167,-119260
27.75000,-119346
27.75833,-119419
27.76667,-119480
27.77500,-119535
27.78333,-119582
27.79167,-119628
27.80000,-119669
27.80833,-119706
27.81667,-119739
27.82500,-119764
27.83333,-119786
27.84167,-119806
27.85000,-119828
27.85833,-119849
27.86667,-119870
27.87500,-119891
27.88333,-119911
27.89167,-119931
27.90000,-119956
27.90833,-119989
27.91667,-120027
27.92500,-120067
27.93333,-120112
27.94167,-120155
27.95000,-120201
27.95833,-120247
27.96667,-120294
27.97500,-120343
27.98333,-120385
27.99167,-120428
28.00000,-120466
28.00833,-120502
28.01667,-120537
28.02500,-120568
28.03333,-120598
28.04167,-120620
28.05000,-120635
28.05833,-120642
28.06667,-120641
28.07500,-120632
28.08333,-120613
28.09167,-120584
28.10000,-120541
28.10833,-120477
28.11667,-120391
28.12500,-120277
28.13333,-120127
28.14167,-119944
28.15000,-119704
28.15833,-119428
28.16667,-119098
28.17500,-118721
28.18333,-118344
28.19167,-117919
28.20000,-117545
28.20833,-117199
28.21667,-116916
28.22500,-116759
28.23333,-116689
28.24167,-116754
28.25000,-116954
28.25833,-117242
28.26667,-117634
28.27500,-118101
28.28333,-118567
28.29167,-119086
28.30000,-119549
28.30833,-119991
28.31667,-120395
28.32500,-120721
28.33333,-121023
28.34167,-121250
28.35000,-121441
28.35833,-121590
28.36667,-121701
28.37500,-121797
28.38333,-121870
28.39167,-121936
28.40000,-121988
28.40833,-122034
28.41667,-122073
28.42500,-122102
28.43333,-122128
28.44167,-122145
28.45000,-122157
28.45833,-122156
28.46667,-122133
28.47500,-122080
28.48333,-121977
28.49167,-121811
28.50000,-121567
28.50833,-121201
28.51667,-120714
28.52500,-120061
28.53333,-119205
28.54167,-118214
28.55000,-116959
28.55833,-115622
28.56667,-114168
28.57500,-112621
28.58333,-111275
28.59167,-109942
28.60000,-108976
28.60833,-108354
28.61667,-108069
28.62500,-108289
28.63333,-108896
28.64167,-109809
28.65000,-111103
28.65833,-112500
28.66667,-113993
28.67500,-115563
28.68333,-116920
28.69167,-118273
28.70000,-119376
28.70833,-120313
28.71667,-121109
28.72500,-121686
28.73333,-122174
28.74167,-122514
28.75000,-122778
28.75833,-122975
28.76667,-123112
28.77500,-123221
28.78333,-123295
28.79167,-123356
28.80000,-123403
28.80833,-123442
28.81667,-123478
28.82500,-123508
28.83333,-123539
28.84167,-123568
28.85000,-123600
28.85833,-123633
28.86667,-123668
28.87500,-123705
28.88333,-123741
28.89167,-123782
28.90000,-123820
28.90833,-123859
28.91667,-123897
28.92500,-123931
28.93333,-123966
28.94167,-123996
28.95000,-124026
28.95833,-124054
28.96667,-124082
28.97500,-124113
28.98333,-124143
28.99167,-124177
29.00000,-124212
29.00833,-124250
29.01667,-124287
29.02500,-124324
29.03333,-124363
29.04167,-124397
29.05000,-124428
29.05833,-124458
29.06667,-124487
29.07500,-124517
29.08333,-124547
29.09167,-124579
29.10000,-124607
29.10833,-124633
29.11667,-124659
29.12500,-124684
29.13333,-124713
29.14167,-124743
29.15000,-124777
29.15833,-124810
29.16667,-124842
29.17500,-124875
29.18333,-124906
29.19167,-124939
29.20000,-124971
29.20833,-125003
29.21667,-125035
29.22500,-125063
29.23333,-125091
29.24167,-125119
29.25000,-125149
29.25833,-125179
29.26667,-125210
29.27500,-125242
29.28333,-125273
29.29167,-125307
29.30000,-125340
29.30833,-125374
29.31667,-125408
29.32500,-125436
29.33333,-125464
29.34167,-125489
29.35000,-125517
29.35833,-125544
29.36667,-125574
29.37500,-125606
29.38333,-125635
29.39167,-125664
29.40000,-125691
29.40833,-125717
29.41667,-125745
29.42500,-125773
29.43333,-125804
29.44167,-125833
29.45000,-125864
29.45833,-125893
29.46667,-125918
29.47500,-125944
29.48333,-125966
29.49167,-125989
29.50000,-126013
29.50833,-126041
29.51667,-126070
29.52500,-126096
29.53333,-126123
29.54167,-126147
29.55000,-126170
29.55833,-126194
29.56667,-126221
29.57500,-126249
29.58333,-126275
29.59167,-126302
29.60000,-126325
29.60833,-126348
29.61667,-126371
29.62500,-126393
29.63333,-126416
29.64167,-126438
29.65000,-126464
29.65833,-126490
29.66667,-126516
29.67500,-126544
29.68333,-126567
29.69167,-126589
29.70000,-126606
29.70833,-126620
29.71667,-126633
29.72500,-126646
29.73333,-126661
29.74167,-126679
29.75000,-126700
29.75833,-126725
29.76667,-126758
29.77500,-126797
29.78333,-126839
29.79167,-126889
29.80000,-126937
29.80833,-126984
29.81667,-127029
29.82500,-127068
29.83333,-127106
29.84167,-127137
29.85000,-127163
29.85833,-127186
29.86667,-127204
29.87500,-127223
29.88333,-127242
29.89167,-127263
29.90000,-127286
29.90833,-127313
29.91667,-127343
29.92500,-127378
29.93333,-127419
29.94167,-127460
29.95000,-127506
29.95833,-127547
29.96667,-127585
29.97500,-127621
29.98333,-127649
29.99167,-127674
30.00000,-127694
30.00833,-127711
30.01667,-127728
30.02500,-127745
30.03333,-127765
30.04167,-127788
30.05000,-127814
30.05833,-127844
30.06667,-127880
30.07500,-127923
30.08333,-127967
30.09167,-128016
30.10000,-128063
30.10833,-128110
30.11667,-128156
30.12500,-128197
30.13333,-128240
30.14167,-128278
30.15000,-128317
30.15833,-128353
30.16667,-128385
30.17500,-128416
30.18333,-128440
30.19167,-128461
30.20000,-128475
30.20833,-128480
30.21667,-128477
30.22500,-128465
30.23333,-128443
30.24167,-128414
30.25000,-128378
30.25833,-128336
30.26667,-128289
30.27500,-128239
30.28333,-128197
30.29167,-128158
30.30000,-128137
30.30833,-128138
30.31667,-128158
30.32500,-128201
30.33333,-128264
30.34167,-128333
30.35000,-128420
30.35833,-128536
30.36667,-128649
30.37500,-128746
30.38333,-128830
30.39167,-128919
30.40000,-128996
30.40833,-129064
30.41667,-129126
30.42500,-129177
30.43333,-129225
30.44167,-129264
30.45000,-129301
30.45833,-129344
30.46667,-129379
30.47500,-129405
30.48333,-129427
30.49167,-129449
30.50000,-129470
30.50833,-129490
30.51667,-129513
30.52500,-129536
30.53333,-129558
30.54167,-129583
30.55000,-129613
30.55833,-129644
30.56667,-129676
30.57500,-129710
30.58333,-129741
30.59167,-129774
30.60000,-129807
30.60833,-129842
30.61667,-129877
30.62500,-129907
30.63333,-129941
30.64167,-129973
30.65000,-130000
30.65833,-130021
30.66667,-130044
30.67500,-130068
30.68333,-130091
30.69167,-130116
30.70000,-130142
30.70833,-130170
30.71667,-130201
30.72500,-130231
30.73333,-130262
30.74167,-130288
30.75000,-130312
30.75833,-130335
30.76667,-130358
30.77500,-130382
30.78333,-130406
30.79167,-130432
30.80000,-130456
30.80833,-130481
30.81667,-130506
30.82500,-130530
30.83333,-130556
30.84167,-130582
30.85000,-130609
30.85833,-130635
30.86667,-130660
30.87500,-130685
30.88333,-130711
30.89167,-130740
30.90000,-130767
30.90833,-130792
30.91667,-130815
30.92500,-130834
30.93333,-130852
30.94167,-130870
30.95000,-130892
30.95833,-130914
30.96667,-130935
30.97500,-130956
30.98333,-130972
30.99167,-130986
31.00000,-130998
31.00833,-131008
31.01667,-131019
31.02500,-131030
31.03333,-131041
31.04167,-131050
31.05000,-131058
31.05833,-131065
31.06667,-131073
31.07500,-131083
31.08333,-131099
31.09167,-131122
31.10000,-131148
31.10833,-131179
31.11667,-131211
31.12500,-131243
31.13333,-131278
31.14167,-131313
31.15000,-131353
31.15833,-131392
31.16667,-131429
31.17500,-131466
31.18333,-131498
31.19167,-131529
31.20000,-131557
31.20833,-131585
31.21667,-131612
31.22500,-131635
31.23333,-131657
31.24167,-131677
31.25000,-131697
31.25833,-131716
31.26667,-131736
31.27500,-131759
31.28333,-131783
31.29167,-131811
31.30000,-131840
31.30833,-131870
31.31667,-131900
31.32500,-131930
31.33333,-131963
31.34167,-131997
31.35000,-132034
31.35833,-132070
31.36667,-132105
31.37500,-132140
31.38333,-132171
31.39167,-132202
31.40000,-132229
31.40833,-132254
31.41667,-132276
31.42500,-132288
31.43333,-132294
31.44167,-132290
31.45000,-132274
31.45833,-132247
31.46667,-132208
31.47500,-132159
31.48333,-132107
31.49167,-132044
31.50000,-131988
31.50833,-131936
31.51667,-131892
31.52500,-131869
31.53333,-131861
31.54167,-131878
31.55000,-131921
31.55833,-131980
31.56667,-132059
31.57500,-132152
31.58333,-132242
31.59167,-132341
31.60000,-132431
31.60833,-132517
31.61667,-132600
31.62500,-132671
31.63333,-132740
31.64167,-132798
31.65000,-132854
31.65833,-132903
31.66667,-132945
31.67500,-132984
31.68333,-133012
31.69167,-133036
31.70000,-133058
31.70833,-133079
31.71667,-133102
31.72500,-133127
31.73333,-133155
31.74167,-133182
31.75000,-133210
31.75833,-133237
31.76667,-133263
31.77500,-133290
31.78333,-133318
31.79167,-133349
31.80000,-133379
31.80833,-133411
31.81667,-133443
31.82500,-133472
31.83333,-133503
31.84167,-133531
31.85000,-133560
31.85833,-133587
31.86667,-133612
31.87500,-133636
31.88333,-133659
31.89167,-133684
31.90000,-133708
31.90833,-133733
31.91667,-133757
31.92500,-133779
31.93333,-133803
31.94167,-133828
31.95000,-133856
31.95833,-133882
31.96667,-133909
31.97500,-133936
31.98333,-133961
31.99167,-133987
32.00000,-134010
32.00833,-134032
32.01667,-134054
32.02500,-134076
32.03333,-134100
32.04167,-134122
32.05000,-134145
32.05833,-134167
32.06667,-134188
32.07500,-134210
32.08333,-134232
32.09167,-134258
32.10000,-134283
32.10833,-134309
32.11667,-134335
32.12500,-134360
32.13333,-134386
32.14167,-134411
32.15000,-134438
32.15833,-134464
32.16667,-134490
32.17500,-134517
32.18333,-134540
32.19167,-134561
32.20000,-134581
32.20833,-134599
32.21667,-134619
32.22500,-134641
32.23333,-134666
32.24167,-134690
32.25000,-134716
32.25833,-134740
32.26667,-134764
32.27500,-134788
32.28333,-134810
32.29167,-134831
32.30000,-134849
32.30833,-134866
32.31667,-134885
32.32500,-134906
32.33333,-134930
32.34167,-134956
32.35000,-134985
32.35833,-135012
32.36667,-135036
32.37500,-135061
32.38333,-135083
32.39167,-135106
32.40000,-135129
32.40833,-135152
32.41667,-135174
32.42500,-135196
32.43333,-135221
32.44167,-135243
32.45000,-135264
32.45833,-135283
32.46667,-135300
32.47500,-135318
32.48333,-135339
32.49167,-135363
32.50000,-135387
32.50833,-135411
32.51667,-135434
32.52500,-135457
32.53333,-135482
32.54167,-135508
32.55000,-135536
32.55833,-135563
32.56667,-135587
32.57500,-135611
32.58333,-135632
32.59167,-135653
32.60000,-135672
32.60833,-135691
32.61667,-135711
32.62500,-135730
32.63333,-135749
32.64167,-135768
32.65000,-135790
32.65833,-135811
32.66667,-135833
32.67500,-135858
32.68333,-135881
32.69167,-135908
32.70000,-135934
32.70833,-135961
32.71667,-135989
32.72500,-136016
32.73333,-136042
32.74167,-136065
32.75000,-136086
32.75833,-136108
32.76667,-136130
32.77500,-136153
32.78333,-136175
32.79167,-136197
32.80000,-136216
32.80833,-136232
32.81667,-136246
32.82500,-136256
32.83333,-136263
32.84167,-136267
32.85000,-136270
32.85833,-136273
32.86667,-136277
32.87500,-136280
32.88333,-136283
32.89167,-136287
32.90000,-136296
32.90833,-136313
32.91667,-136335
32.92500,-136365
32.93333,-136400
32.94167,-136435
32.95000,-136474
32.95833,-136513
32.96667,-136551
32.97500,-136589
32.98333,-136623
32.99167,-136657
33.00000,-136690
33.00833,-136723
33.01667,-136757
33.02500,-136786
33.03333,-136815
33.04167,-136840
33.05000,-136866
33.05833,-136891
33.06667,-136915
33.07500,-136938
33.08333,-136959
33.09167,-136980
33.10000,-137002
33.10833,-137026
33.11667,-137051
33.12500,-137073
33.13333,-137097
33.14167,-137117
33.15000,-137139
33.15833,-137162
33.16667,-137184
33.17500,-137208
33.18333,-137230
33.19167,-137253
33.20000,-137275
33.20833,-137298
33.21667,-137321
33.22500,-137344
33.23333,-137368
33.24167,-137390
33.25000,-137411
33.25833,-137431
33.26667,-137450
33.27500,-137470
33.28333,-137492
33.29167,-137517
33.30000,-137540
33.30833,-137562
33.31667,-137582
33.32500,-137598
33.33333,-137613
33.34167,-137629
33.35000,-137648
33.35833,-137669
33.36667,-137691
33.37500,-137715
33.38333,-137736
33.39167,-137758
33.40000,-137778
33.40833,-137797
33.41667,-137817
33.42500,-137835
33.43333,-137853
33.44167,-137869
33.45000,-137887
33.45833,-137905
33.46667,-137924
33.47500,-137946
33.48333,-137968
33.49167,-137992
33.50000,-138014
33.50833,-138034
33.51667,-138054
33.52500,-138071
33.53333,-138088
33.54167,-138106
33.55000,-138126
33.55833,-138146
33.56667,-138167
33.57500,-138190
33.58333,-138212
33.59167,-138238
33.60000,-138262
33.60833,-138286
33.61667,-138311
33.62500,-138333
33.63333,-138356
33.64167,-138378
33.65000,-138401
33.65833,-138423
33.66667,-138446
33.67500,-138470
33.68333,-138493
33.69167,-138517
33.70000,-138540
33.70833,-138562
33.71667,-138585
33.72500,-138607
33.73333,-138633
33.74167,-138658
33.75000,-138685
33.75833,-138709
33.76667,-138730
33.77500,-138750
33.78333,-138769
33.79167,-138789
33.80000,-138809
33.80833,-138830
33.81667,-138849
33.82500,-138865
33.83333,-138881
33.84167,-138896
33.85000,-138911
33.85833,-138926
33.86667,-138942
33.87500,-138960
33.88333,-138976
33.89167,-138993
33.90000,-139008
33.90833,-139022
33.91667,-139037
33.92500,-139053
33.93333,-139073
33.94167,-139093
33.95000,-139115
33.95833,-139136
33.96667,-139156
33.97500,-139177
33.98333,-139197
33.99167,-139219
34.00000,-139239
34.00833,-139259
34.01667,-139278
34.02500,-139294
34.03333,-139310
34.04167,-139323
34.05000,-139335
34.05833,-139345
34.06667,-139352
34.07500,-139358
34.08333,-139361
34.09167,-139363
34.10000,-139366
34.10833,-139372
34.11667,-139380
34.12500,-139396
34.13333,-139419
34.14167,-139443
34.15000,-139466

[LC Chromatogram(Detector A-Ch2)]
Interval(msec),500
# of Points,4099
Start Time(min),0.000
End Time(min),34.150
Intensity Units,mAU
Intensity Multiplier,0.001
Wavelength(nm),220nm
R.Time (min),Intensity
0.00000,-1558
0.00833,-1558
0.01667,-3
0.02500,-10
0.03333,-16
0.04167,-20
0.05000,-22
0.05833,-21
0.06667,-18
0.07500,-16
0.08333,-14
0.09167,-13
0.10000,-14
0.10833,-16
0.11667,-16
0.12500,-15
0.13333,-16
0.14167,-19
0.15000,-24
0.15833,-30
0.16667,-35
0.17500,-34
0.18333,-26
0.19167,-20
0.20000,-16
0.20833,-15
0.21667,-19
0.22500,-27
0.23333,-32
0.24167,-33
0.25000,-32
0.25833,-30
0.26667,-27
0.27500,-27
0.28333,-29
0.29167,-32
0.30000,-33
0.30833,-33
0.31667,-32
0.32500,-29
0.33333,-27
0.34167,-30
0.35000,-34
0.35833,-37
0.36667,-41
0.37500,-45
0.38333,-50
0.39167,-54
0.40000,-59
0.40833,-61
0.41667,-59
0.42500,-53
0.43333,-48
0.44167,-44
0.45000,-39
0.45833,-35
0.46667,-31
0.47500,-30
0.48333,-32
0.49167,-37
0.50000,-45
0.50833,-53
0.51667,-59
0.52500,-65
0.53333,-68
0.54167,-68
0.55000,-66
0.55833,-65
0.56667,-66
0.57500,-67
0.58333,-68
0.59167,-67
0.60000,-64
0.60833,-61
0.61667,-60
0.62500,-61
0.63333,-62
0.64167,-61
0.65000,-59
0.65833,-58
0.66667,-60
0.67500,-65
0.68333,-70
0.69167,-74
0.70000,-76
0.70833,-77
0.71667,-77
0.72500,-74
0.73333,-73
0.74167,-72
0.75000,-70
0.75833,-70
0.76667,-69
0.77500,-67
0.78333,-65
0.79167,-65
0.80000,-69
0.80833,-73
0.81667,-76
0.82500,-76
0.83333,-76
0.84167,-75
0.85000,-73
0.85833,-73
0.86667,-73
0.87500,-72
0.88333,-68
0.89167,-65
0.90000,-65
0.90833,-67
0.91667,-71
0.92500,-75
0.93333,-76
0.94167,-75
0.95000,-73
0.95833,-74
0.96667,-78
0.97500,-81
0.98333,-85
0.99167,-87
1.00000,-89
1.00833,-90
1.01667,-90
1.02500,-88
1.03333,-87
1.04167,-86
1.05000,-87
1.05833,-91
1.06667,-97
1.07500,-98
1.08333,-95
1.09167,-88
1.10000,-81
1.10833,-75
1.11667,-73
1.12500,-74
1.13333,-75
1.14167,-79
1.15000,-82
1.15833,-84
1.16667,-83
1.17500,-82
1.18333,-80
1.19167,-79
1.20000,-80
1.20833,-83
1.21667,-87
1.22500,-91
1.23333,-95
1.24167,-95
1.25000,-94
1.25833,-94
1.26667,-95
1.27500,-96
1.28333,-98
1.29167,-100
1.30000,-100
1.30833,-98
1.31667,-97
1.32500,-96
1.33333,-96
1.34167,-97
1.35000,-98
1.35833,-98
1.36667,-97
1.37500,-95
1.38333,-93
1.39167,-93
1.40000,-96
1.40833,-99
1.41667,-101
1.42500,-99
1.43333,-96
1.44167,-92
1.45000,-90
1.45833,-92
1.46667,-95
1.47500,-98
1.48333,-100
1.49167,-98
1.50000,-93
1.50833,-86
1.51667,-81
1.52500,-89
1.53333,-143
1.54167,-261
1.55000,-526
1.55833,-1020
1.56667,-1758
1.57500,-2829
1.58333,-4298
1.59167,-5937
1.60000,-7917
1.60833,-9773
1.61667,-11168
1.62500,-11854
1.63333,-10232
1.64167,-6099
1.65000,488
1.65833,10523
1.66667,22125
1.67500,32632
1.68333,43333
1.69167,52173
1.70000,66950
1.70833,201738
1.71667,588310
1.72500,1166825
1.73333,1798084
1.74167,2534647
1.75000,3160774
1.75833,3643930
1.76667,3983121
1.77500,4000000
1.78333,4000000
1.79167,4000000
1.80000,4000000
1.80833,4000000
1.81667,4000000
1.82500,4000000
1.83333,4000000
1.84167,4000000
1.85000,4000000
1.85833,4000000
1.86667,4000000
1.87500,4000000
1.88333,4000000
1.89167,4000000
1.90000,4000000
1.90833,4000000
1.91667,4000000
1.92500,4000000
1.93333,4000000
1.94167,4000000
1.95000,4000000
1.95833,4000000
1.96667,4000000
1.97500,4000000
1.98333,4000000
1.99167,4000000
2.00000,4000000
2.00833,4000000
2.01667,4000000
2.02500,4000000
2.03333,4000000
2.04167,4000000
2.05000,4000000
2.05833,4000000
2.06667,3997818
2.07500,3919615
2.08333,3814422
2.09167,3731231
2.10000,3654644
2.10833,3587274
2.11667,3533227
2.12500,3482795
2.13333,3440302
2.14167,3397528
2.15000,3357708
2.15833,3317863
2.16667,3277839
2.17500,3242842
2.18333,3207289
2.19167,3176605
2.20000,3146890
2.20833,3118912
2.21667,3093130
2.22500,3066696
2.23333,3043501
2.24167,3019754
2.25000,2998449
2.25833,2978619
2.26667,2959079
2.27500,2941252
2.28333,2922432
2.29167,2905910
2.30000,2889753
2.30833,2874701
2.31667,2861284
2.32500,2847769
2.33333,2835797
2.34167,2823318
2.35000,2811556
2.35833,2799721
2.36667,2787557
2.37500,2776170
2.38333,2763970
2.39167,2753152
2.40000,2742469
2.40833,2732431
2.41667,2723363
2.42500,2713923
2.43333,2704607
2.44167,2693771
2.45000,2681611
2.45833,2666604
2.46667,2649283
2.47500,2630960
2.48333,2609804
2.49167,2590215
2.50000,2570155
2.50833,2550878
2.51667,2533024
2.52500,2514353
2.53333,2496564
2.54167,2476663
2.55000,2455934
2.55833,2432343
2.56667,2405288
2.57500,2375178
2.58333,2338545
2.59167,2299875
2.60000,2254306
2.60833,2205926
2.61667,2155355
2.62500,2099465
2.63333,2046965
2.64167,1990158
2.65000,1937057
2.65833,1885272
2.66667,1833875
2.67500,1788869
2.68333,1743276
2.69167,1705550
2.70000,1671431
2.70833,1643663
2.71667,1625846
2.72500,1614128
2.73333,1612498
2.74167,1618962
2.75000,1628291
2.75833,1639393
2.76667,1647813
2.77500,1645459
2.78333,1632975
2.79167,1607457
2.80000,1565054
2.80833,1513945
2.81667,1455536
2.82500,1389476
2.83333,1330540
2.84167,1270559
2.85000,1218700
2.85833,1173633
2.86667,1132209
2.87500,1098831
2.88333,1066895
2.89167,1040184
2.90000,1014941
2.90833,991717
2.91667,971091
2.92500,950397
2.93333,932334
2.94167,913806
2.95000,896681
2.95833,879886
2.96667,862966
2.97500,847585
2.98333,831348
2.99167,816517
3.00000,801195
3.00833,786210
3.01667,771895
3.02500,756899
3.03333,743494
3.04167,729532
3.05000,716578
3.05833,703879
3.06667,691099
3.07500,679505
3.08333,667322
3.09167,656417
3.10000,645435
3.10833,634853
3.11667,624878
3.12500,614493
3.13333,605199
3.14167,595491
3.15000,586469
3.15833,577608
3.16667,568643
3.17500,560387
3.18333,551622
3.19167,543803
3.20000,535991
3.20833,528532
3.21667,521607
3.22500,514427
3.23333,507893
3.24167,500943
3.25000,494396
3.25833,487875
3.26667,481181
3.27500,474847
3.28333,467960
3.29167,461563
3.30000,454868
3.30833,448283
3.31667,441969
3.32500,435304
3.33333,429185
3.34167,422654
3.35000,416586
3.35833,410696
3.36667,404784
3.37500,399385
3.38333,393659
3.39167,388414
3.40000,382987
3.40833,377720
3.41667,372780
3.42500,367639
3.43333,362964
3.44167,358002
3.45000,353349
3.45833,348746
3.46667,344073
3.47500,339755
3.48333,335135
3.49167,330858
3.50000,326384
3.50833,322021
3.51667,317920
3.52500,313673
3.53333,309905
3.54167,306006
3.55000,302432
3.55833,298991
3.56667,295537
3.57500,292352
3.58333,288926
3.59167,285634
3.60000,282035
3.60833,278388
3.61667,274771
3.62500,270882
3.63333,267283
3.64167,263415
3.65000,259730
3.65833,256007
3.66667,252188
3.67500,248647
3.68333,244855
3.69167,241342
3.70000,237661
3.70833,234036
3.71667,230552
3.72500,226873
3.73333,223510
3.74167,219929
3.75000,216541
3.75833,213143
3.76667,209675
3.77500,206482
3.78333,203082
3.79167,199955
3.80000,196707
3.80833,193530
3.81667,190503
3.82500,187326
3.83333,184434
3.84167,181366
3.85000,178476
3.85833,175593
3.86667,172663
3.87500,169985
3.88333,167148
3.89167,164545
3.90000,161843
3.90833,159196
3.91667,156670
3.92500,154019
3.93333,151621
3.94167,149092
3.95000,146720
3.95833,144367
3.96667,141978
3.97500,139783
3.98333,137449
3.99167,135309
4.00000,133093
4.00833,130930
4.01667,128876
4.02500,126726
4.03333,124774
4.04167,122711
4.05000,120777
4.05833,118862
4.06667,116919
4.07500,115133
4.08333,113235
4.09167,111500
4.10000,109710
4.10833,107971
4.11667,106330
4.12500,104616
4.13333,103062
4.14167,101417
4.15000,99883
4.15833,98375
4.16667,96853
4.17500,95461
4.18333,93988
4.19167,92646
4.20000,91264
4.20833,89918
4.21667,88642
4.22500,87308
4.23333,86102
4.24167,84833
4.25000,83653
4.25833,82501
4.26667,81339
4.27500,80274
4.28333,79143
4.29167,78115
4.30000,77060
4.30833,76037
4.31667,75070
4.32500,74061
4.33333,73151
4.34167,72194
4.35000,71306
4.35833,70438
4.36667,69563
4.37500,68763
4.38333,67916
4.39167,67147
4.40000,66363
4.40833,65602
4.41667,64884
4.42500,64135
4.43333,63458
4.44167,62744
4.45000,62077
4.45833,61421
4.46667,60759
4.47500,60153
4.48333,59510
4.49167,58926
4.50000,58332
4.50833,57756
4.51667,57210
4.52500,56639
4.53333,56121
4.54167,55572
4.55000,55059
4.55833,54558
4.56667,54055
4.57500,53595
4.58333,53109
4.59167,52668
4.60000,52215
4.60833,51774
4.61667,51356
4.62500,50919
4.63333,50520
4.64167,50098
4.65000,49705
4.65833,49318
4.66667,48929
4.67500,48572
4.68333,48193
4.69167,47847
4.70000,47488
4.70833,47138
4.71667,46805
4.72500,46458
4.73333,46142
4.74167,45808
4.75000,45496
4.75833,45190
4.76667,44878
4.77500,44591
4.78333,44286
4.79167,44008
4.80000,43724
4.80833,43448
4.81667,43186
4.82500,42911
4.83333,42658
4.84167,42388
4.85000,42132
4.85833,41877
4.86667,41616
4.87500,41377
4.88333,41122
4.89167,40889
4.90000,40647
4.90833,40408
4.91667,40176
4.92500,39930
4.93333,39706
4.94167,39468
4.95000,39244
4.95833,39020
4.96667,38791
4.97500,38581
4.98333,38360
4.99167,38159
5.00000,37954
5.00833,37756
5.01667,37571
5.02500,37382
5.03333,37221
5.04167,37065
5.05000,36942
5.05833,36858
5.06667,36825
5.07500,36898
5.08333,37084
5.09167,37436
5.10000,38023
5.10833,38847
5.11667,40022
5.12500,41593
5.13333,43517
5.14167,46046
5.15000,48897
5.15833,52321
5.16667,56220
5.17500,60307
5.18333,65039
5.19167,69625
5.20000,74589
5.20833,79491
5.21667,84120
5.22500,88879
5.23333,92922
5.24167,96898
5.25000,100257
5.25833,103090
5.26667,105563
5.27500,107281
5.28333,108642
5.29167,109407
5.30000,109681
5.30833,109584
5.31667,109055
5.32500,108200
5.33333,107144
5.34167,105785
5.35000,104368
5.35833,102826
5.36667,101195
5.37500,99663
5.38333,98021
5.39167,96559
5.40000,95105
5.40833,93749
5.41667,92553
5.42500,91370
5.43333,90373
5.44167,89387
5.45000,88492
5.45833,87626
5.46667,86729
5.47500,85829
5.48333,84791
5.49167,83698
5.50000,82396
5.50833,80954
5.51667,79336
5.52500,77448
5.53333,75513
5.54167,73258
5.55000,71001
5.55833,68613
5.56667,66109
5.57500,63759
5.58333,61238
5.59167,58975
5.60000,56705
5.60833,54560
5.61667,52627
5.62500,50688
5.63333,49041
5.64167,47409
5.65000,45979
5.65833,44683
5.66667,43448
5.67500,42400
5.68333,41358
5.69167,40469
5.70000,39618
5.70833,38835
5.71667,38147
5.72500,37468
5.73333,36900
5.74167,36346
5.75000,35873
5.75833,35463
5.76667,35086
5.77500,34779
5.78333,34486
5.79167,34245
5.80000,34026
5.80833,33834
5.81667,33679
5.82500,33536
5.83333,33424
5.84167,33324
5.85000,33247
5.85833,33192
5.86667,33152
5.87500,33134
5.88333,33133
5.89167,33145
5.90000,33170
5.90833,33207
5.91667,33263
5.92500,33338
5.93333,33427
5.94167,33542
5.95000,33663
5.95833,33796
5.96667,33938
5.97500,34074
5.98333,34221
5.99167,34353
6.00000,34487
6.00833,34611
6.01667,34720
6.02500,34825
6.03333,34903
6.04167,34965
6.05000,35008
6.05833,35032
6.06667,35043
6.07500,35039
6.08333,35023
6.09167,34997
6.10000,34956
6.10833,34906
6.11667,34845
6.12500,34772
6.13333,34695
6.14167,34605
6.15000,34512
6.15833,34413
6.16667,34309
6.17500,34214
6.18333,34113
6.19167,34020
6.20000,33926
6.20833,33834
6.21667,33745
6.22500,33651
6.23333,33567
6.24167,33481
6.25000,33401
6.25833,33326
6.26667,33251
6.27500,33182
6.28333,33110
6.29167,33047
6.30000,32984
6.30833,32925
6.31667,32873
6.32500,32820
6.33333,32776
6.34167,32734
6.35000,32699
6.35833,32670
6.36667,32644
6.37500,32619
6.38333,32591
6.39167,32563
6.40000,32534
6.40833,32506
6.41667,32480
6.42500,32456
6.43333,32439
6.44167,32427
6.45000,32420
6.45833,32415
6.46667,32411
6.47500,32406
6.48333,32402
6.49167,32398
6.50000,32394
6.50833,32391
6.51667,32387
6.52500,32383
6.53333,32380
6.54167,32377
6.55000,32376
6.55833,32378
6.56667,32383
6.57500,32389
6.58333,32396
6.59167,32402
6.60000,32408
6.60833,32414
6.61667,32419
6.62500,32424
6.63333,32429
6.64167,32434
6.65000,32435
6.65833,32432
6.66667,32424
6.67500,32409
6.68333,32387
6.69167,32365
6.70000,32340
6.70833,32315
6.71667,32289
6.72500,32260
6.73333,32234
6.74167,32207
6.75000,32180
6.75833,32152
6.76667,32123
6.77500,32094
6.78333,32063
6.79167,32038
6.80000,32017
6.80833,31998
6.81667,31981
6.82500,31962
6.83333,31944
6.84167,31925
6.85000,31907
6.85833,31890
6.86667,31874
6.87500,31857
6.88333,31838
6.89167,31823
6.90000,31810
6.90833,31799
6.91667,31791
6.92500,31785
6.93333,31779
6.94167,31774
6.95000,31768
6.95833,31762
6.96667,31756
6.97500,31748
6.98333,31739
6.99167,31729
7.00000,31716
7.00833,31701
7.01667,31685
7.02500,31666
7.03333,31652
7.04167,31640
7.05000,31628
7.05833,31614
7.06667,31599
7.07500,31582
7.08333,31563
7.09167,31546
7.10000,31530
7.10833,31514
7.11667,31495
7.12500,31474
7.13333,31455
7.14167,31438
7.15000,31422
7.15833,31407
7.16667,31393
7.17500,31379
7.18333,31365
7.19167,31353
7.20000,31341
7.20833,31329
7.21667,31315
7.22500,31298
7.23333,31281
7.24167,31261
7.25000,31245
7.25833,31233
7.26667,31225
7.27500,31221
7.28333,31217
7.29167,31209
7.30000,31197
7.30833,31182
7.31667,31167
7.32500,31149
7.33333,31133
7.34167,31119
7.35000,31106
7.35833,31093
7.36667,31079
7.37500,31065
7.38333,31049
7.39167,31037
7.40000,31026
7.40833,31016
7.41667,31007
7.42500,30997
7.43333,30987
7.44167,30977
7.45000,30967
7.45833,30956
7.46667,30941
7.47500,30919
7.48333,30890
7.49167,30859
7.50000,30823
7.50833,30788
7.51667,30759
7.52500,30731
7.53333,30709
7.54167,30690
7.55000,30671
7.55833,30652
7.56667,30635
7.57500,30627
7.58333,30626
7.59167,30631
7.60000,30641
7.60833,30647
7.61667,30642
7.62500,30626
7.63333,30603
7.64167,30573
7.65000,30543
7.65833,30515
7.66667,30487
7.67500,30463
7.68333,30437
7.69167,30411
7.70000,30383
7.70833,30358
7.71667,30340
7.72500,30325
7.73333,30314
7.74167,30303
7.75000,30290
7.75833,30272
7.76667,30254
7.77500,30240
7.78333,30226
7.79167,30214
7.80000,30203
7.80833,30192
7.81667,30179
7.82500,30165
7.83333,30152
7.84167,30137
7.85000,30122
7.85833,30106
7.86667,30090
7.87500,30077
7.88333,30066
7.89167,30060
7.90000,30060
7.90833,30065
7.91667,30075
7.92500,30090
7.93333,30110
7.94167,30136
7.95000,30169
7.95833,30209
7.96667,30256
7.97500,30307
7.98333,30367
7.99167,30426
8.00000,30488
8.00833,30547
8.01667,30598
8.02500,30646
8.03333,30680
8.04167,30706
8.05000,30720
8.05833,30722
8.06667,30713
8.07500,30695
8.08333,30669
8.09167,30645
8.10000,30625
8.10833,30611
8.11667,30607
8.12500,30611
8.13333,30618
8.14167,30626
8.15000,30633
8.15833,30641
8.16667,30648
8.17500,30645
8.18333,30635
8.19167,30621
8.20000,30604
8.20833,30581
8.21667,30548
8.22500,30504
8.23333,30460
8.24167,30405
8.25000,30344
8.25833,30300
8.26667,30274
8.27500,30252
8.28333,30228
8.29167,30209
8.30000,30196
8.30833,30189
8.31667,30194
8.32500,30210
8.33333,30233
8.34167,30269
8.35000,30319
8.35833,30373
8.36667,30425
8.37500,30478
8.38333,30539
8.39167,30595
8.40000,30648
8.40833,30698
8.41667,30739
8.42500,30788
8.43333,30841
8.44167,30894
8.45000,30957
8.45833,31034
8.46667,31118
8.47500,31212
8.48333,31328
8.49167,31450
8.50000,31596
8.50833,31771
8.51667,31941
8.52500,32084
8.53333,32200
8.54167,32319
8.55000,32422
8.55833,32513
8.56667,32595
8.57500,32649
8.58333,32687
8.59167,32700
8.60000,32686
8.60833,32644
8.61667,32582
8.62500,32505
8.63333,32415
8.64167,32298
8.65000,32179
8.65833,32059
8.66667,31903
8.67500,31748
8.68333,31618
8.69167,31508
8.70000,31386
8.70833,31262
8.71667,31150
8.72500,31037
8.73333,30945
8.74167,30851
8.75000,30746
8.75833,30657
8.76667,30588
8.77500,30529
8.78333,30465
8.79167,30411
8.80000,30362
8.80833,30315
8.81667,30281
8.82500,30264
8.83333,30255
8.84167,30249
8.85000,30246
8.85833,30246
8.86667,30247
8.87500,30251
8.88333,30256
8.89167,30265
8.90000,30279
8.90833,30300
8.91667,30324
8.92500,30350
8.93333,30375
8.94167,30405
8.95000,30432
8.95833,30456
8.96667,30483
8.97500,30508
8.98333,30527
8.99167,30547
9.00000,30575
9.00833,30609
9.01667,30649
9.02500,30697
9.03333,30753
9.04167,30822
9.05000,30900
9.05833,30992
9.06667,31097
9.07500,31201
9.08333,31314
9.09167,31413
9.10000,31506
9.10833,31590
9.11667,31655
9.12500,31714
9.13333,31759
9.14167,31796
9.15000,31826
9.15833,31851
9.16667,31877
9.17500,31905
9.18333,31938
9.19167,31971
9.20000,32007
9.20833,32042
9.21667,32069
9.22500,32091
9.23333,32103
9.24167,32107
9.25000,32104
9.25833,32092
9.26667,32073
9.27500,32052
9.28333,32026
9.29167,32002
9.30000,31978
9.30833,31955
9.31667,31931
9.32500,31906
9.33333,31878
9.34167,31846
9.35000,31817
9.35833,31792
9.36667,31770
9.37500,31754
9.38333,31739
9.39167,31733
9.40000,31738
9.40833,31743
9.41667,31740
9.42500,31728
9.43333,31707
9.44167,31677
9.45000,31652
9.45833,31639
9.46667,31632
9.47500,31631
9.48333,31634
9.49167,31639
9.50000,31644
9.50833,31646
9.51667,31643
9.52500,31634
9.53333,31624
9.54167,31614
9.55000,31607
9.55833,31606
9.56667,31611
9.57500,31630
9.58333,31662
9.59167,31703
9.60000,31756
9.60833,31811
9.61667,31859
9.62500,31906
9.63333,31939
9.64167,31962
9.65000,31974
9.65833,31975
9.66667,31968
9.67500,31957
9.68333,31942
9.69167,31925
9.70000,31907
9.70833,31891
9.71667,31880
9.72500,31875
9.73333,31879
9.74167,31894
9.75000,31912
9.75833,31932
9.76667,31950
9.77500,31964
9.78333,31977
9.79167,31990
9.80000,32009
9.80833,32030
9.81667,32052
9.82500,32077
9.83333,32095
9.84167,32110
9.85000,32121
9.85833,32127
9.86667,32133
9.87500,32144
9.88333,32160
9.89167,32182
9.90000,32211
9.90833,32242
9.91667,32269
9.92500,32293
9.93333,32307
9.94167,32313
9.95000,32314
9.95833,32309
9.96667,32299
9.97500,32290
9.98333,32281
9.99167,32277
10.00000,32280
10.00833,32291
10.01667,32315
10.02500,32349
10.03333,32388
10.04167,32438
10.05000,32488
10.05833,32539
10.06667,32587
10.07500,32621
10.08333,32646
10.09167,32654
10.10000,32645
10.10833,32624
10.11667,32590
10.12500,32547
10.13333,32504
10.14167,32457
10.15000,32415
10.15833,32379
10.16667,32347
10.17500,32330
10.18333,32323
10.19167,32328
10.20000,32348
10.20833,32375
10.21667,32401
10.22500,32429
10.23333,32452
10.24167,32474
10.25000,32496
10.25833,32523
10.26667,32555
10.27500,32597
10.28333,32654
10.29167,32732
10.30000,32840
10.30833,32976
10.31667,33149
10.32500,33360
10.33333,33574
10.34167,33815
10.35000,34031
10.35833,34214
10.36667,34365
10.37500,34435
10.38333,34446
10.39167,34398
10.40000,34289
10.40833,34154
10.41667,34007
10.42500,33845
10.43333,33704
10.44167,33564
10.45000,33447
10.45833,33356
10.46667,33280
10.47500,33232
10.48333,33199
10.49167,33178
10.50000,33165
10.50833,33154
10.51667,33145
10.52500,33136
10.53333,33136
10.54167,33144
10.55000,33171
10.55833,33224
10.56667,33303
10.57500,33412
10.58333,33574
10.59167,33857
10.60000,34316
10.60833,34809
10.61667,35232
10.62500,35597
10.63333,35715
10.64167,35620
10.65000,35457
10.65833,35274
10.66667,35085
10.67500,34922
10.68333,34754
10.69167,34594
10.70000,34419
10.70833,34250
10.71667,34104
10.72500,33966
10.73333,33870
10.74167,33800
10.75000,33764
10.75833,33765
10.76667,33788
10.77500,33824
10.78333,33871
10.79167,33908
10.80000,33933
10.80833,33948
10.81667,33952
10.82500,33948
10.83333,33941
10.84167,33932
10.85000,33928
10.85833,33932
10.86667,33948
10.87500,33979
10.88333,34026
10.89167,34082
10.90000,34154
10.90833,34230
10.91667,34303
10.92500,34380
10.93333,34447
10.94167,34513
10.95000,34573
10.95833,34626
10.96667,34675
10.97500,34712
10.98333,34745
10.99167,34770
11.00000,34788
11.00833,34801
11.01667,34808
11.02500,34813
11.03333,34819
11.04167,34827
11.05000,34839
11.05833,34859
11.06667,34886
11.07500,34921
11.08333,34965
11.09167,35008
11.10000,35051
11.10833,35091
11.11667,35121
11.12500,35148
11.13333,35165
11.14167,35177
11.15000,35185
11.15833,35189
11.16667,35191
11.17500,35192
11.18333,35188
11.19167,35177
11.20000,35155
11.20833,35128
11.21667,35096
11.22500,35060
11.23333,35028
11.24167,34994
11.25000,34964
11.25833,34936
11.26667,34911
11.27500,34899
11.28333,34898
11.29167,34907
11.30000,34925
11.30833,34948
11.31667,34972
11.32500,35001
11.33333,35032
11.34167,35072
11.35000,35116
11.35833,35166
11.36667,35224
11.37500,35288
11.38333,35364
11.39167,35445
11.40000,35539
11.40833,35635
11.41667,35724
11.42500,35812
11.43333,35876
11.44167,35925
11.45000,35954
11.45833,35960
11.46667,35950
11.47500,35927
11.48333,35893
11.49167,35854
11.50000,35811
11.50833,35766
11.51667,35718
11.52500,35668
11.53333,35631
11.54167,35602
11.55000,35587
11.55833,35588
11.56667,35601
11.57500,35624
11.58333,35655
11.59167,35687
11.60000,35721
11.60833,35757
11.61667,35796
11.62500,35840
11.63333,35886
11.64167,35937
11.65000,35982
11.65833,36017
11.66667,36046
11.67500,36065
11.68333,36081
11.69167,36093
11.70000,36102
11.70833,36117
11.71667,36145
11.72500,36193
11.73333,36278
11.74167,36415
11.75000,36610
11.75833,36891
11.76667,37247
11.77500,37657
11.78333,38154
11.79167,38619
11.80000,39089
11.80833,39501
11.81667,39782
11.82500,39982
11.83333,40030
11.84167,39949
11.85000,39791
11.85833,39557
11.86667,39281
11.87500,39015
11.88333,38729
11.89167,38475
11.90000,38227
11.90833,37996
11.91667,37800
11.92500,37613
11.93333,37466
11.94167,37337
11.95000,37236
11.95833,37162
11.96667,37102
11.97500,37065
11.98333,37040
11.99167,37032
12.00000,37045
12.00833,37080
12.01667,37147
12.02500,37258
12.03333,37445
12.04167,37739
12.05000,38168
12.05833,38814
12.06667,39661
12.07500,40707
12.08333,42043
12.09167,43421
12.10000,44975
12.10833,46536
12.11667,47977
12.12500,49432
12.13333,50590
12.14167,51629
12.15000,52417
12.15833,52931
12.16667,53311
12.17500,53558
12.18333,53777
12.19167,54106
12.20000,54638
12.20833,55306
12.21667,56104
12.22500,56992
12.23333,57593
12.24167,57961
12.25000,57910
12.25833,57284
12.26667,56244
12.27500,54859
12.28333,53066
12.29167,51318
12.30000,49487
12.30833,47763
12.31667,46337
12.32500,45012
12.33333,44055
12.34167,43292
12.35000,42771
12.35833,42496
12.36667,42387
12.37500,42494
12.38333,42777
12.39167,43175
12.40000,43722
12.40833,44303
12.41667,44837
12.42500,45352
12.43333,45665
12.44167,45826
12.45000,45818
12.45833,45610
12.46667,45283
12.47500,44908
12.48333,44469
12.49167,44101
12.50000,43789
12.50833,43548
12.51667,43423
12.52500,43363
12.53333,43360
12.54167,43400
12.55000,43446
12.55833,43484
12.56667,43530
12.57500,43603
12.58333,43718
12.59167,43898
12.60000,44176
12.60833,44512
12.61667,44900
12.62500,45341
12.63333,45707
12.64167,46045
12.65000,46293
12.65833,46430
12.66667,46505
12.67500,46513
12.68333,46478
12.69167,46414
12.70000,46319
12.70833,46194
12.71667,46030
12.72500,45819
12.73333,45580
12.74167,45282
12.75000,44976
12.75833,44654
12.76667,44325
12.77500,44059
12.78333,43815
12.79167,43655
12.80000,43571
12.80833,43551
12.81667,43611
12.82500,43730
12.83333,43885
12.84167,44090
12.85000,44312
12.85833,44562
12.86667,44858
12.87500,45210
12.88333,45669
12.89167,46225
12.90000,46962
12.90833,47840
12.91667,48891
12.92500,50180
12.93333,51586
12.94167,53301
12.95000,55118
12.95833,57140
12.96667,59347
12.97500,61477
12.98333,63798
12.99167,65817
13.00000,67703
13.00833,69271
13.01667,70233
13.02500,70799
13.03333,70690
13.04167,69956
13.05000,68794
13.05833,67118
13.06667,65111
13.07500,63088
13.08333,60833
13.09167,58837
13.10000,56929
13.10833,55191
13.11667,53751
13.12500,52388
13.13333,51316
13.14167,50346
13.15000,49590
13.15833,49057
13.16667,48690
13.17500,48610
13.18333,48759
13.19167,49179
13.20000,49931
13.20833,50743
13.21667,51422
13.22500,52021
13.23333,52325
13.24167,52406
13.25000,52394
13.25833,52346
13.26667,52263
13.27500,52122
13.28333,51926
13.29167,51773
13.30000,51669
13.30833,51645
13.31667,51753
13.32500,51956
13.33333,52189
13.34167,52460
13.35000,52648
13.35833,52696
13.36667,52622
13.37500,52367
13.38333,51948
13.39167,51478
13.40000,50927
13.40833,50404
13.41667,50009
13.42500,49707
13.43333,49666
13.44167,49878
13.45000,50391
13.45833,51335
13.46667,52808
13.47500,55118
13.48333,58863
13.49167,65963
13.50000,78314
13.50833,100009
13.51667,138401
13.52500,195718
13.53333,274945
13.54167,385457
13.55000,504327
13.55833,633659
13.56667,763457
13.57500,858891
13.58333,936642
13.59167,977326
13.60000,983665
13.60833,973326
13.61667,953277
13.62500,930365
13.63333,923113
13.64167,931187
13.65000,948900
13.65833,976360
13.66667,1004409
13.67500,1016928
13.68333,1016572
13.69167,998488
13.70000,959477
13.70833,911684
13.71667,861049
13.72500,807310
13.73333,768055
13.74167,737693
13.75000,717729
13.75833,708127
13.76667,701077
13.77500,689813
13.78333,671697
13.79167,643800
13.80000,601328
13.80833,551184
13.81667,495654
13.82500,433044
13.83333,377634
13.84167,321984
13.85000,274236
13.85833,234494
13.86667,199151
13.87500,173203
13.88333,150839
13.89167,134681
13.90000,122645
13.90833,113760
13.91667,108681
13.92500,105590
13.93333,104655
13.94167,105267
13.95000,106437
13.95833,107879
13.96667,109318
13.97500,110216
13.98333,110998
13.99167,112833
14.00000,116510
14.00833,124528
14.01667,140782
14.02500,166833
14.03333,206810
14.04167,266020
14.05000,337393
14.05833,426681
14.06667,526605
14.07500,618772
14.08333,713171
14.09167,779700
14.10000,820397
14.10833,835341
14.11667,813795
14.12500,766217
14.13333,703694
14.14167,621812
14.15000,540850
14.15833,462418
14.16667,386221
14.17500,326207
14.18333,271311
14.19167,230358
14.20000,198857
14.20833,174781
14.21667,159779
14.22500,149074
14.23333,142963
14.24167,139425
14.25000,136957
14.25833,134728
14.26667,132261
14.27500,129326
14.28333,125644
14.29167,122105
14.30000,118441
14.30833,114950
14.31667,111932
14.32500,108913
14.33333,106155
14.34167,103177
14.35000,100175
14.35833,96929
14.36667,93435
14.37500,90113
14.38333,86520
14.39167,83365
14.40000,80353
14.40833,77630
14.41667,75435
14.42500,73408
14.43333,71867
14.44167,70520
14.45000,69405
14.45833,68463
14.46667,67577
14.47500,66809
14.48333,66023
14.49167,65337
14.50000,64676
14.50833,64084
14.51667,63628
14.52500,63238
14.53333,63015
14.54167,62908
14.55000,62882
14.55833,62929
14.56667,62998
14.57500,63027
14.58333,63012
14.59167,62914
14.60000,62710
14.60833,62432
14.61667,62074
14.62500,61635
14.63333,61195
14.64167,60697
14.65000,60198
14.65833,59672
14.66667,59106
14.67500,58555
14.68333,57944
14.69167,57382
14.70000,56812
14.70833,56271
14.71667,55806
14.72500,55359
14.73333,55020
14.74167,54733
14.75000,54525
14.75833,54401
14.76667,54329
14.77500,54323
14.78333,54363
14.79167,54433
14.80000,54533
14.80833,54652
14.81667,54793
14.82500,54958
14.83333,55117
14.84167,55286
14.85000,55419
14.85833,55501
14.86667,55540
14.87500,55506
14.88333,55411
14.89167,55286
14.90000,55124
14.90833,54963
14.91667,54837
14.92500,54727
14.93333,54659
14.94167,54613
14.95000,54566
14.95833,54496
14.96667,54399
14.97500,54260
14.98333,54071
14.99167,53864
15.00000,53620
15.00833,53381
15.01667,53183
15.02500,53008
15.03333,52918
15.04167,52895
15.05000,52943
15.05833,53075
15.06667,53260
15.07500,53469
15.08333,53713
15.09167,53906
15.10000,54055
15.10833,54150
15.11667,54165
15.12500,54124
15.13333,54025
15.14167,53864
15.15000,53680
15.15833,53468
15.16667,53242
15.17500,53043
15.18333,52846
15.19167,52695
15.20000,52580
15.20833,52495
15.21667,52452
15.22500,52426
15.23333,52403
15.24167,52374
15.25000,52334
15.25833,52277
15.26667,52208
15.27500,52140
15.28333,52068
15.29167,52017
15.30000,51988
15.30833,51980
15.31667,52001
15.32500,52042
15.33333,52085
15.34167,52133
15.35000,52176
15.35833,52216
15.36667,52264
15.37500,52336
15.38333,52440
15.39167,52566
15.40000,52727
15.40833,52883
15.41667,53000
15.42500,53090
15.43333,53107
15.44167,53057
15.45000,52962
15.45833,52816
15.46667,52636
15.47500,52451
15.48333,52241
15.49167,52054
15.50000,51876
15.50833,51716
15.51667,51591
15.52500,51481
15.53333,51415
15.54167,51379
15.55000,51387
15.55833,51455
15.56667,51576
15.57500,51764
15.58333,52030
15.59167,52332
15.60000,52699
15.60833,53105
15.61667,53543
15.62500,54056
15.63333,54605
15.64167,55268
15.65000,55949
15.65833,56670
15.66667,57401
15.67500,57982
15.68333,58500
15.69167,58791
15.70000,58858
15.70833,58744
15.71667,58411
15.72500,57912
15.73333,57361
15.74167,56703
15.75000,56070
15.75833,55465
15.76667,54874
15.77500,54390
15.78333,53926
15.79167,53560
15.80000,53257
15.80833,53011
15.81667,52842
15.82500,52712
15.83333,52636
15.84167,52594
15.85000,52583
15.85833,52603
15.86667,52640
15.87500,52679
15.88333,52720
15.89167,52753
15.90000,52781
15.90833,52812
15.91667,52857
15.92500,52923
15.93333,53022
15.94167,53168
15.95000,53348
15.95833,53580
15.96667,53847
15.97500,54112
15.98333,54403
15.99167,54645
16.00000,54852
16.00833,55009
16.01667,55082
16.02500,55097
16.03333,55039
16.04167,54909
16.05000,54742
16.05833,54533
16.06667,54298
16.07500,54069
16.08333,53819
16.09167,53599
16.10000,53387
16.10833,53200
16.11667,53062
16.12500,52949
16.13333,52882
16.14167,52847
16.15000,52840
16.15833,52864
16.16667,52909
16.17500,52967
16.18333,53039
16.19167,53110
16.20000,53184
16.20833,53256
16.21667,53318
16.22500,53378
16.23333,53425
16.24167,53468
16.25000,53506
16.25833,53542
16.26667,53578
16.27500,53614
16.28333,53654
16.29167,53696
16.30000,53746
16.30833,53801
16.31667,53856
16.32500,53915
16.33333,53965
16.34167,54014
16.35000,54058
16.35833,54097
16.36667,54134
16.37500,54164
16.38333,54191
16.39167,54209
16.40000,54221
16.40833,54227
16.41667,54225
16.42500,54217
16.43333,54203
16.44167,54184
16.45000,54161
16.45833,54134
16.46667,54104
16.47500,54072
16.48333,54035
16.49167,54007
16.50000,53990
16.50833,53984
16.51667,53997
16.52500,54024
16.53333,54064
16.54167,54118
16.55000,54185
16.55833,54270
16.56667,54374
16.57500,54494
16.58333,54643
16.59167,54800
16.60000,54984
16.60833,55176
16.61667,55362
16.62500,55557
16.63333,55720
16.64167,55875
16.65000,56006
16.65833,56113
16.66667,56214
16.67500,56309
16.68333,56409
16.69167,56488
16.70000,56549
16.70833,56574
16.71667,56533
16.72500,56440
16.73333,56309
16.74167,56134
16.75000,55955
16.75833,55776
16.76667,55600
16.77500,55457
16.78333,55324
16.79167,55222
16.80000,55142
16.80833,55080
16.81667,55035
16.82500,54997
16.83333,54969
16.84167,54945
16.85000,54932
16.85833,54932
16.86667,54946
16.87500,54978
16.88333,55027
16.89167,55095
16.90000,55188
16.90833,55301
16.91667,55433
16.92500,55588
16.93333,55737
16.94167,55899
16.95000,56048
16.95833,56182
16.96667,56307
16.97500,56402
16.98333,56485
16.99167,56547
17.00000,56594
17.00833,56635
17.01667,56675
17.02500,56720
17.03333,56769
17.04167,56832
17.05000,56900
17.05833,56978
17.06667,57065
17.07500,57155
17.08333,57258
17.09167,57356
17.10000,57458
17.10833,57550
17.11667,57613
17.12500,57655
17.13333,57645
17.14167,57584
17.15000,57483
17.15833,57332
17.16667,57148
17.17500,56953
17.18333,56728
17.19167,56521
17.20000,56315
17.20833,56125
17.21667,55972
17.22500,55831
17.23333,55729
17.24167,55648
17.25000,55593
17.25833,55562
17.26667,55545
17.27500,55547
17.28333,55563
17.29167,55585
17.30000,55611
17.30833,55638
17.31667,55666
17.32500,55695
17.33333,55722
17.34167,55751
17.35000,55777
17.35833,55799
17.36667,55821
17.37500,55839
17.38333,55855
17.39167,55872
17.40000,55892
17.40833,55916
17.41667,55943
17.42500,55978
17.43333,56015
17.44167,56059
17.45000,56106
17.45833,56157
17.46667,56213
17.47500,56270
17.48333,56334
17.49167,56401
17.50000,56480
17.50833,56570
17.51667,56675
17.52500,56802
17.53333,56940
17.54167,57105
17.55000,57275
17.55833,57456
17.56667,57642
17.57500,57795
17.58333,57936
17.59167,58024
17.60000,58064
17.60833,58063
17.61667,58007
17.62500,57909
17.63333,57790
17.64167,57640
17.65000,57494
17.65833,57356
17.66667,57224
17.67500,57123
17.68333,57036
17.69167,56977
17.70000,56941
17.70833,56922
17.71667,56928
17.72500,56955
17.73333,57006
17.74167,57085
17.75000,57191
17.75833,57336
17.76667,57514
17.77500,57714
17.78333,57957
17.79167,58199
17.80000,58462
17.80833,58714
17.81667,58926
17.82500,59120
17.83333,59237
17.84167,59297
17.85000,59304
17.85833,59251
17.86667,59162
17.87500,59060
17.88333,58939
17.89167,58838
17.90000,58750
17.90833,58680
17.91667,58637
17.92500,58616
17.93333,58629
17.94167,58678
17.95000,58748
17.95833,58844
17.96667,58953
17.97500,59049
17.98333,59145
17.99167,59214
18.00000,59259
18.00833,59279
18.01667,59258
18.02500,59202
18.03333,59120
18.04167,59005
18.05000,58883
18.05833,58758
18.06667,58631
18.07500,58526
18.08333,58426
18.09167,58350
18.10000,58292
18.10833,58245
18.11667,58216
18.12500,58195
18.13333,58185
18.14167,58185
18.15000,58196
18.15833,58220
18.16667,58260
18.17500,58326
18.18333,58432
18.19167,58599
18.20000,58862
18.20833,59205
18.21667,59645
18.22500,60180
18.23333,60682
18.24167,61205
18.25000,61622
18.25833,61895
18.26667,62064
18.27500,62068
18.28333,61951
18.29167,61769
18.30000,61519
18.30833,61250
18.31667,60990
18.32500,60718
18.33333,60482
18.34167,60248
18.35000,60048
18.35833,59882
18.36667,59734
18.37500,59625
18.38333,59533
18.39167,59470
18.40000,59430
18.40833,59410
18.41667,59416
18.42500,59443
18.43333,59487
18.44167,59553
18.45000,59626
18.45833,59711
18.46667,59803
18.47500,59889
18.48333,59980
18.49167,60058
18.50000,60130
18.50833,60187
18.51667,60215
18.52500,60222
18.53333,60202
18.54167,60155
18.55000,60098
18.55833,60032
18.56667,59964
18.57500,59907
18.58333,59853
18.59167,59817
18.60000,59797
18.60833,59790
18.61667,59799
18.62500,59822
18.63333,59850
18.64167,59884
18.65000,59925
18.65833,59981
18.66667,60052
18.67500,60145
18.68333,60268
18.69167,60404
18.70000,60570
18.70833,60752
18.71667,60946
18.72500,61164
18.73333,61362
18.74167,61569
18.75000,61753
18.75833,61912
18.76667,62059
18.77500,62177
18.78333,62288
18.79167,62373
18.80000,62444
18.80833,62502
18.81667,62547
18.82500,62586
18.83333,62618
18.84167,62648
18.85000,62680
18.85833,62717
18.86667,62760
18.87500,62810
18.88333,62872
18.89167,62941
18.90000,63028
18.90833,63127
18.91667,63239
18.92500,63371
18.93333,63501
18.94167,63646
18.95000,63776
18.95833,63887
18.96667,63977
18.97500,64016
18.98333,64016
18.99167,63972
19.00000,63877
19.00833,63748
19.01667,63589
19.02500,63396
19.03333,63210
19.04167,63008
19.05000,62824
19.05833,62656
19.06667,62497
19.07500,62374
19.08333,62263
19.09167,62179
19.10000,62113
19.10833,62060
19.11667,62025
19.12500,62001
19.13333,61991
19.14167,61992
19.15000,61999
19.15833,62011
19.16667,62027
19.17500,62044
19.18333,62062
19.19167,62078
19.20000,62093
19.20833,62107
19.21667,62119
19.22500,62129
19.23333,62135
19.24167,62138
19.25000,62142
19.25833,62148
19.26667,62157
19.27500,62173
19.28333,62197
19.29167,62222
19.30000,62249
19.30833,62279
19.31667,62317
19.32500,62367
19.33333,62420
19.34167,62481
19.35000,62538
19.35833,62585
19.36667,62637
19.37500,62680
19.38333,62707
19.39167,62719
19.40000,62723
19.40833,62722
19.41667,62717
19.42500,62711
19.43333,62706
19.44167,62703
19.45000,62706
19.45833,62719
19.46667,62739
19.47500,62763
19.48333,62796
19.49167,62833
19.50000,62863
19.50833,62885
19.51667,62907
19.52500,62929
19.53333,62947
19.54167,62965
19.55000,62987
19.55833,63011
19.56667,63037
19.57500,63071
19.58333,63118
19.59167,63179
19.60000,63267
19.60833,63391
19.61667,63565
19.62500,63866
19.63333,64308
19.64167,64893
19.65000,65724
19.65833,66758
19.66667,67861
19.67500,68918
19.68333,70246
19.69167,71650
19.70000,72663
19.70833,73153
19.71667,73227
19.72500,72998
19.73333,72474
19.74167,71652
19.75000,70560
19.75833,69455
19.76667,68505
19.77500,67771
19.78333,66981
19.79167,66191
19.80000,65640
19.80833,65333
19.81667,65133
19.82500,64960
19.83333,64850
19.84167,64784
19.85000,64750
19.85833,64743
19.86667,64755
19.87500,64782
19.88333,64817
19.89167,64859
19.90000,64913
19.90833,64976
19.91667,65045
19.92500,65143
19.93333,65262
19.94167,65392
19.95000,65543
19.95833,65706
19.96667,65865
19.97500,66021
19.98333,66199
19.99167,66362
20.00000,66521
20.00833,66663
20.01667,66766
20.02500,66846
20.03333,66883
20.04167,66886
20.05000,66858
20.05833,66793
20.06667,66705
20.07500,66615
20.08333,66500
20.09167,66373
20.10000,66270
20.10833,66201
20.11667,66153
20.12500,66107
20.13333,66075
20.14167,66070
20.15000,66083
20.15833,66104
20.16667,66132
20.17500,66159
20.18333,66175
20.19167,66178
20.20000,66166
20.20833,66146
20.21667,66124
20.22500,66100
20.23333,66080
20.24167,66063
20.25000,66050
20.25833,66041
20.26667,66038
20.27500,66044
20.28333,66061
20.29167,66087
20.30000,66126
20.30833,66173
20.31667,66225
20.32500,66286
20.33333,66344
20.34167,66407
20.35000,66470
20.35833,66532
20.36667,66596
20.37500,66651
20.38333,66708
20.39167,66753
20.40000,66790
20.40833,66816
20.41667,66830
20.42500,66835
20.43333,66835
20.44167,66829
20.45000,66821
20.45833,66816
20.46667,66814
20.47500,66816
20.48333,66821
20.49167,66828
20.50000,66834
20.50833,66843
20.51667,66855
20.52500,66873
20.53333,66894
20.54167,66921
20.55000,66950
20.55833,66981
20.56667,67016
20.57500,67055
20.58333,67103
20.59167,67151
20.60000,67203
20.60833,67255
20.61667,67303
20.62500,67353
20.63333,67391
20.64167,67424
20.65000,67449
20.65833,67465
20.66667,67478
20.67500,67487
20.68333,67496
20.69167,67502
20.70000,67506
20.70833,67511
20.71667,67519
20.72500,67530
20.73333,67545
20.74167,67564
20.75000,67588
20.75833,67619
20.76667,67658
20.77500,67703
20.78333,67760
20.79167,67824
20.80000,67903
20.80833,67996
20.81667,68108
20.82500,68249
20.83333,68409
20.84167,68607
20.85000,68820
20.85833,69059
20.86667,69321
20.87500,69564
20.88333,69823
20.89167,70042
20.90000,70239
20.90833,70412
20.91667,70546
20.92500,70670
20.93333,70785
20.94167,70916
20.95000,71077
20.95833,71293
20.96667,71566
20.97500,71882
20.98333,72273
20.99167,72655
21.00000,73055
21.00833,73428
21.01667,73714
21.02500,73953
21.03333,74063
21.04167,74063
21.05000,73960
21.05833,73729
21.06667,73408
21.07500,73035
21.08333,72581
21.09167,72148
21.10000,71707
21.10833,71286
21.11667,70930
21.12500,70589
21.13333,70326
21.14167,70098
21.15000,69918
21.15833,69790
21.16667,69688
21.17500,69625
21.18333,69583
21.19167,69562
21.20000,69561
21.20833,69575
21.21667,69604
21.22500,69645
21.23333,69695
21.24167,69758
21.25000,69830
21.25833,69916
21.26667,70020
21.27500,70136
21.28333,70276
21.29167,70420
21.30000,70584
21.30833,70760
21.31667,70937
21.32500,71133
21.33333,71314
21.34167,71503
21.35000,71672
21.35833,71814
21.36667,71935
21.37500,72003
21.38333,72033
21.39167,72018
21.40000,71952
21.40833,71857
21.41667,71745
21.42500,71614
21.43333,71502
21.44167,71397
21.45000,71320
21.45833,71282
21.46667,71272
21.47500,71311
21.48333,71395
21.49167,71506
21.50000,71654
21.50833,71821
21.51667,71993
21.52500,72184
21.53333,72354
21.54167,72526
21.55000,72673
21.55833,72786
21.56667,72881
21.57500,72947
21.58333,72999
21.59167,73030
21.60000,73044
21.60833,73040
21.61667,73011
21.62500,72960
21.63333,72895
21.64167,72809
21.65000,72716
21.65833,72614
21.66667,72504
21.67500,72404
21.68333,72301
21.69167,72217
21.70000,72148
21.70833,72093
21.71667,72060
21.72500,72042
21.73333,72038
21.74167,72049
21.75000,72070
21.75833,72104
21.76667,72146
21.77500,72186
21.78333,72231
21.79167,72275
21.80000,72322
21.80833,72376
21.81667,72438
21.82500,72517
21.83333,72606
21.84167,72717
21.85000,72848
21.85833,73011
21.86667,73213
21.87500,73453
21.88333,73760
21.89167,74112
21.90000,74555
21.90833,75059
21.91667,75618
21.92500,76271
21.93333,76922
21.94167,77656
21.95000,78380
21.95833,79107
21.96667,79854
21.97500,80499
21.98333,81145
21.99167,81664
22.00000,82092
22.00833,82421
22.01667,82584
22.02500,82638
22.03333,82542
22.04167,82296
22.05000,81956
22.05833,81506
22.06667,80974
22.07500,80441
22.08333,79844
22.09167,79308
22.10000,78796
22.10833,78327
22.11667,77951
22.12500,77605
22.13333,77344
22.14167,77122
22.15000,76952
22.15833,76838
22.16667,76759
22.17500,76732
22.18333,76742
22.19167,76781
22.20000,76850
22.20833,76937
22.21667,77034
22.22500,77147
22.23333,77246
22.24167,77342
22.25000,77420
22.25833,77475
22.26667,77515
22.27500,77530
22.28333,77529
22.29167,77515
22.30000,77488
22.30833,77457
22.31667,77427
22.32500,77397
22.33333,77381
22.34167,77376
22.35000,77385
22.35833,77415
22.36667,77460
22.37500,77512
22.38333,77577
22.39167,77642
22.40000,77714
22.40833,77788
22.41667,77857
22.42500,77931
22.43333,77994
22.44167,78055
22.45000,78113
22.45833,78175
22.46667,78242
22.47500,78311
22.48333,78389
22.49167,78462
22.50000,78536
22.50833,78605
22.51667,78664
22.52500,78720
22.53333,78767
22.54167,78809
22.55000,78845
22.55833,78873
22.56667,78899
22.57500,78921
22.58333,78944
22.59167,78966
22.60000,78987
22.60833,79006
22.61667,79019
22.62500,79030
22.63333,79047
22.64167,79073
22.65000,79104
22.65833,79141
22.66667,79180
22.67500,79209
22.68333,79233
22.69167,79248
22.70000,79255
22.70833,79255
22.71667,79250
22.72500,79238
22.73333,79220
22.74167,79195
22.75000,79167
22.75833,79134
22.76667,79099
22.77500,79069
22.78333,79039
22.79167,79017
22.80000,79000
22.80833,78989
22.81667,78989
22.82500,78999
22.83333,79022
22.84167,79058
22.85000,79101
22.85833,79155
22.86667,79221
22.87500,79296
22.88333,79390
22.89167,79499
22.90000,79639
22.90833,79814
22.91667,80046
22.92500,80366
22.93333,80813
22.94167,81465
22.95000,82386
22.95833,83749
22.96667,85639
22.97500,88226
22.98333,91806
22.99167,96135
23.00000,101779
23.00833,108237
23.01667,115291
23.02500,123319
23.03333,130507
23.04167,137729
23.05000,143532
23.05833,147362
23.06667,149691
23.07500,149383
23.08333,146925
23.09167,142926
23.10000,137035
23.10833,130312
23.11667,123433
23.12500,115946
23.13333,109552
23.14167,103393
23.15000,98193
23.15833,94064
23.16667,90481
23.17500,87972
23.18333,85928
23.19167,84500
23.20000,83508
23.20833,82781
23.21667,82335
23.22500,82012
23.23333,81807
23.24167,81661
23.25000,81555
23.25833,81483
23.26667,81427
23.27500,81394
23.28333,81374
23.29167,81371
23.30000,81388
23.30833,81418
23.31667,81461
23.32500,81517
23.33333,81575
23.34167,81641
23.35000,81704
23.35833,81764
23.36667,81822
23.37500,81869
23.38333,81911
23.39167,81947
23.40000,81977
23.40833,82007
23.41667,82038
23.42500,82075
23.43333,82128
23.44167,82204
23.45000,82299
23.45833,82420
23.46667,82564
23.47500,82710
23.48333,82875
23.49167,83028
23.50000,83178
23.50833,83315
23.51667,83417
23.52500,83501
23.53333,83545
23.54167,83556
23.55000,83536
23.55833,83481
23.56667,83396
23.57500,83281
23.58333,83126
23.59167,82961
23.60000,82773
23.60833,82584
23.61667,82417
23.62500,82250
23.63333,82113
23.64167,81987
23.65000,81885
23.65833,81808
23.66667,81750
23.67500,81727
23.68333,81731
23.69167,81757
23.70000,81806
23.70833,81871
23.71667,81952
23.72500,82055
23.73333,82170
23.74167,82312
23.75000,82464
23.75833,82631
23.76667,82814
23.77500,82996
23.78333,83200
23.79167,83386
23.80000,83570
23.80833,83737
23.81667,83859
23.82500,83960
23.83333,84014
23.84167,84034
23.85000,84026
23.85833,83987
23.86667,83927
23.87500,83864
23.88333,83791
23.89167,83729
23.90000,83676
23.90833,83631
23.91667,83601
23.92500,83578
23.93333,83559
23.94167,83543
23.95000,83527
23.95833,83510
23.96667,83494
23.97500,83485
23.98333,83479
23.99167,83475
24.00000,83471
24.00833,83469
24.01667,83474
24.02500,83487
24.03333,83506
24.04167,83535
24.05000,83568
24.05833,83602
24.06667,83638
24.07500,83674
24.08333,83711
24.09167,83745
24.10000,83776
24.10833,83807
24.11667,83834
24.12500,83862
24.13333,83889
24.14167,83917
24.15000,83946
24.15833,83980
24.16667,84020
24.17500,84067
24.18333,84127
24.19167,84194
24.20000,84275
24.20833,84369
24.21667,84476
24.22500,84602
24.23333,84730
24.24167,84876
24.25000,85023
24.25833,85173
24.26667,85326
24.27500,85449
24.28333,85562
24.29167,85637
24.30000,85678
24.30833,85692
24.31667,85674
24.32500,85633
24.33333,85577
24.34167,85507
24.35000,85438
24.35833,85376
24.36667,85319
24.37500,85287
24.38333,85272
24.39167,85279
24.40000,85309
24.40833,85351
24.41667,85395
24.42500,85442
24.43333,85488
24.44167,85537
24.45000,85586
24.45833,85636
24.46667,85685
24.47500,85722
24.48333,85754
24.49167,85776
24.50000,85792
24.50833,85802
24.51667,85808
24.52500,85813
24.53333,85820
24.54167,85829
24.55000,85840
24.55833,85853
24.56667,85869
24.57500,85888
24.58333,85911
24.59167,85937
24.60000,85967
24.60833,85998
24.61667,86030
24.62500,86065
24.63333,86098
24.64167,86135
24.65000,86172
24.65833,86211
24.66667,86254
24.67500,86298
24.68333,86349
24.69167,86395
24.70000,86440
24.70833,86484
24.71667,86527
24.72500,86574
24.73333,86617
24.74167,86663
24.75000,86708
24.75833,86752
24.76667,86798
24.77500,86842
24.78333,86890
24.79167,86937
24.80000,86989
24.80833,87044
24.81667,87103
24.82500,87169
24.83333,87233
24.84167,87301
24.85000,87367
24.85833,87431
24.86667,87496
24.87500,87555
24.88333,87613
24.89167,87664
24.90000,87710
24.90833,87752
24.91667,87787
24.92500,87820
24.93333,87846
24.94167,87869
24.95000,87888
24.95833,87902
24.96667,87916
24.97500,87929
24.98333,87946
24.99167,87966
25.00000,87993
25.00833,88024
25.01667,88053
25.02500,88085
25.03333,88120
25.04167,88161
25.05000,88204
25.05833,88251
25.06667,88302
25.07500,88347
25.08333,88392
25.09167,88437
25.10000,88486
25.10833,88541
25.11667,88600
25.12500,88670
25.13333,88743
25.14167,88828
25.15000,88916
25.15833,89010
25.16667,89111
25.17500,89206
25.18333,89307
25.19167,89392
25.20000,89467
25.20833,89527
25.21667,89563
25.22500,89584
25.23333,89587
25.24167,89575
25.25000,89557
25.25833,89535
25.26667,89514
25.27500,89504
25.28333,89501
25.29167,89508
25.30000,89522
25.30833,89544
25.31667,89575
25.32500,89616
25.33333,89661
25.34167,89714
25.35000,89767
25.35833,89817
25.36667,89869
25.37500,89920
25.38333,89976
25.39167,90030
25.40000,90085
25.40833,90139
25.41667,90188
25.42500,90240
25.43333,90289
25.44167,90342
25.45000,90394
25.45833,90445
25.46667,90497
25.47500,90542
25.48333,90589
25.49167,90633
25.50000,90679
25.50833,90726
25.51667,90770
25.52500,90816
25.53333,90861
25.54167,90910
25.55000,90961
25.55833,91016
25.56667,91077
25.57500,91136
25.58333,91201
25.59167,91272
25.60000,91357
25.60833,91451
25.61667,91548
25.62500,91656
25.63333,91753
25.64167,91853
25.65000,91944
25.65833,92025
25.66667,92103
25.67500,92162
25.68333,92214
25.69167,92253
25.70000,92283
25.70833,92307
25.71667,92322
25.72500,92333
25.73333,92342
25.74167,92353
25.75000,92364
25.75833,92374
25.76667,92385
25.77500,92398
25.78333,92414
25.79167,92439
25.80000,92480
25.80833,92530
25.81667,92586
25.82500,92650
25.83333,92711
25.84167,92777
25.85000,92842
25.85833,92910
25.86667,92983
25.87500,93051
25.88333,93122
25.89167,93185
25.90000,93244
25.90833,93296
25.91667,93333
25.92500,93364
25.93333,93388
25.94167,93409
25.95000,93429
25.95833,93451
25.96667,93475
25.97500,93498
25.98333,93525
25.99167,93559
26.00000,93606
26.00833,93660
26.01667,93720
26.02500,93788
26.03333,93852
26.04167,93918
26.05000,93983
26.05833,94045
26.06667,94109
26.07500,94169
26.08333,94233
26.09167,94293
26.10000,94352
26.10833,94407
26.11667,94451
26.12500,94493
26.13333,94529
26.14167,94565
26.15000,94602
26.15833,94644
26.16667,94690
26.17500,94733
26.18333,94779
26.19167,94820
26.20000,94862
26.20833,94906
26.21667,94953
26.22500,95006
26.23333,95063
26.24167,95133
26.25000,95206
26.25833,95285
26.26667,95374
26.27500,95464
26.28333,95568
26.29167,95675
26.30000,95796
26.30833,95924
26.31667,96050
26.32500,96188
26.33333,96311
26.34167,96435
26.35000,96543
26.35833,96628
26.36667,96699
26.37500,96738
26.38333,96757
26.39167,96759
26.40000,96744
26.40833,96722
26.41667,96703
26.42500,96686
26.43333,96678
26.44167,96679
26.45000,96689
26.45833,96713
26.46667,96747
26.47500,96789
26.48333,96841
26.49167,96893
26.50000,96948
26.50833,97004
26.51667,97056
26.52500,97109
26.53333,97158
26.54167,97211
26.55000,97265
26.55833,97322
26.56667,97383
26.57500,97440
26.58333,97500
26.59167,97554
26.60000,97607
26.60833,97654
26.61667,97693
26.62500,97729
26.63333,97762
26.64167,97799
26.65000,97840
26.65833,97890
26.66667,97951
26.67500,98026
26.68333,98124
26.69167,98235
26.70000,98372
26.70833,98525
26.71667,98690
26.72500,98880
26.73333,99068
26.74167,99277
26.75000,99456
26.75833,99583
26.76667,99674
26.77500,99700
26.78333,99678
26.79167,99636
26.80000,99579
26.80833,99515
26.81667,99447
26.82500,99372
26.83333,99312
26.84167,99259
26.85000,99221
26.85833,99202
26.86667,99194
26.87500,99201
26.88333,99219
26.89167,99247
26.90000,99288
26.90833,99338
26.91667,99395
26.92500,99465
26.93333,99548
26.94167,99658
26.95000,99788
26.95833,99955
26.96667,100157
26.97500,100380
26.98333,100651
26.99167,100932
27.00000,101253
27.00833,101588
27.01667,101911
27.02500,102250
27.03333,102522
27.04167,102763
27.05000,102941
27.05833,103039
27.06667,103087
27.07500,103076
27.08333,103019
27.09167,102942
27.10000,102841
27.10833,102733
27.11667,102631
27.12500,102528
27.13333,102442
27.14167,102361
27.15000,102297
27.15833,102255
27.16667,102224
27.17500,102208
27.18333,102199
27.19167,102195
27.20000,102194
27.20833,102198
27.21667,102207
27.22500,102221
27.23333,102234
27.24167,102250
27.25000,102265
27.25833,102279
27.26667,102294
27.27500,102314
27.28333,102342
27.29167,102372
27.30000,102406
27.30833,102441
27.31667,102475
27.32500,102512
27.33333,102552
27.34167,102601
27.35000,102654
27.35833,102711
27.36667,102777
27.37500,102844
27.38333,102922
27.39167,102998
27.40000,103077
27.40833,103154
27.41667,103222
27.42500,103289
27.43333,103343
27.44167,103391
27.45000,103431
27.45833,103465
27.46667,103497
27.47500,103527
27.48333,103561
27.49167,103600
27.50000,103651
27.50833,103713
27.51667,103785
27.52500,103874
27.53333,103973
27.54167,104096
27.55000,104234
27.55833,104398
27.56667,104589
27.57500,104790
27.58333,105025
27.59167,105262
27.60000,105523
27.60833,105792
27.61667,106049
27.62500,106316
27.63333,106532
27.64167,106725
27.65000,106863
27.65833,106931
27.66667,106951
27.67500,106908
27.68333,106809
27.69167,106681
27.70000,106514
27.70833,106332
27.71667,106153
27.72500,105964
27.73333,105808
27.74167,105665
27.75000,105550
27.75833,105466
27.76667,105401
27.77500,105367
27.78333,105353
27.79167,105362
27.80000,105396
27.80833,105449
27.81667,105520
27.82500,105613
27.83333,105716
27.84167,105845
27.85000,105985
27.85833,106141
27.86667,106314
27.87500,106481
27.88333,106665
27.89167,106825
27.90000,106973
27.90833,107100
27.91667,107186
27.92500,107249
27.93333,107274
27.94167,107267
27.95000,107239
27.95833,107187
27.96667,107121
27.97500,107060
27.98333,106997
27.99167,106949
28.00000,106914
28.00833,106891
28.01667,106887
28.02500,106898
28.03333,106930
28.04167,106988
28.05000,107070
28.05833,107192
28.06667,107356
28.07500,107573
28.08333,107869
28.09167,108227
28.10000,108697
28.10833,109255
28.11667,109909
28.12500,110701
28.13333,111520
28.14167,112474
28.15000,113408
28.15833,114317
28.16667,115210
28.17500,115897
28.18333,116495
28.19167,116861
28.20000,117005
28.20833,116974
28.21667,116720
28.22500,116287
28.23333,115755
28.24167,115073
28.25000,114370
28.25833,113650
28.26667,112906
28.27500,112270
28.28333,111643
28.29167,111129
28.30000,110686
28.30833,110307
28.31667,110029
28.32500,109793
28.33333,109637
28.34167,109529
28.35000,109461
28.35833,109432
28.36667,109424
28.37500,109433
28.38333,109456
28.39167,109484
28.40000,109520
28.40833,109562
28.41667,109611
28.42500,109669
28.43333,109731
28.44167,109804
28.45000,109888
28.45833,109996
28.46667,110137
28.47500,110325
28.48333,110585
28.49167,110929
28.50000,111416
28.50833,112054
28.51667,112911
28.52500,114047
28.53333,115407
28.54167,117176
28.55000,119145
28.55833,121417
28.56667,123952
28.57500,126367
28.58333,128964
28.59167,131114
28.60000,132927
28.60833,134288
28.61667,134840
28.62500,134834
28.63333,134141
28.64167,132738
28.65000,130981
28.65833,128840
28.66667,126433
28.67500,124205
28.68333,121859
28.69167,119876
28.70000,118115
28.70833,116588
28.71667,115460
28.72500,114497
28.73333,113835
28.74167,113341
28.75000,112995
28.75833,112784
28.76667,112643
28.77500,112577
28.78333,112554
28.79167,112560
28.80000,112591
28.80833,112636
28.81667,112688
28.82500,112750
28.83333,112809
28.84167,112870
28.85000,112929
28.85833,112986
28.86667,113045
28.87500,113100
28.88333,113160
28.89167,113219
28.90000,113282
28.90833,113348
28.91667,113413
28.92500,113483
28.93333,113547
28.94167,113614
28.95000,113679
28.95833,113743
28.96667,113809
28.97500,113867
28.98333,113926
28.99167,113980
29.00000,114031
29.00833,114081
29.01667,114126
29.02500,114174
29.03333,114221
29.04167,114273
29.05000,114328
29.05833,114386
29.06667,114450
29.07500,114511
29.08333,114580
29.09167,114646
29.10000,114715
29.10833,114786
29.11667,114853
29.12500,114925
29.13333,114990
29.14167,115055
29.15000,115116
29.15833,115172
29.16667,115229
29.17500,115283
29.18333,115343
29.19167,115399
29.20000,115458
29.20833,115518
29.21667,115575
29.22500,115637
29.23333,115697
29.24167,115764
29.25000,115831
29.25833,115903
29.26667,115979
29.27500,116049
29.28333,116124
29.29167,116193
29.30000,116264
29.30833,116337
29.31667,116411
29.32500,116493
29.33333,116571
29.34167,116655
29.35000,116735
29.35833,116812
29.36667,116890
29.37500,116961
29.38333,117038
29.39167,117110
29.40000,117186
29.40833,117265
29.41667,117342
29.42500,117428
29.43333,117514
29.44167,117613
29.45000,117715
29.45833,117822
29.46667,117940
29.47500,118058
29.48333,118192
29.49167,118320
29.50000,118452
29.50833,118587
29.51667,118723
29.52500,118876
29.53333,119040
29.54167,119238
29.55000,119454
29.55833,119702
29.56667,119981
29.57500,120259
29.58333,120570
29.59167,120852
29.60000,121122
29.60833,121360
29.61667,121527
29.62500,121654
29.63333,121700
29.64167,121678
29.65000,121614
29.65833,121509
29.66667,121385
29.67500,121278
29.68333,121178
29.69167,121117
29.70000,121098
29.70833,121112
29.71667,121163
29.72500,121242
29.73333,121329
29.74167,121432
29.75000,121527
29.75833,121607
29.76667,121679
29.77500,121728
29.78333,121766
29.79167,121811
29.80000,121874
29.80833,121967
29.81667,122113
29.82500,122319
29.83333,122583
29.84167,122940
29.85000,123339
29.85833,123797
29.86667,124300
29.87500,124757
29.88333,125227
29.89167,125590
29.90000,125859
29.90833,126027
29.91667,126038
29.92500,125938
29.93333,125738
29.94167,125426
29.95000,125078
29.95833,124700
29.96667,124301
29.97500,123962
29.98333,123630
29.99167,123369
30.00000,123161
30.00833,122998
30.01667,122901
30.02500,122839
30.03333,122815
30.04167,122820
30.05000,122840
30.05833,122869
30.06667,122905
30.07500,122944
30.08333,122992
30.09167,123043
30.10000,123100
30.10833,123160
30.11667,123220
30.12500,123286
30.13333,123351
30.14167,123426
30.15000,123503
30.15833,123586
30.16667,123679
30.17500,123777
30.18333,123893
30.19167,124021
30.20000,124176
30.20833,124357
30.21667,124570
30.22500,124833
30.23333,125127
30.24167,125494
30.25000,125888
30.25833,126322
30.26667,126796
30.27500,127239
30.28333,127709
30.29167,128096
30.30000,128420
30.30833,128664
30.31667,128768
30.32500,128780
30.33333,128686
30.34167,128481
30.35000,128183
30.35833,127846
30.36667,127526
30.37500,127236
30.38333,126925
30.39167,126669
30.40000,126453
30.40833,126275
30.41667,126154
30.42500,126061
30.43333,126012
30.44167,125993
30.45000,125994
30.45833,126014
30.46667,126048
30.47500,126092
30.48333,126146
30.49167,126203
30.50000,126267
30.50833,126335
30.51667,126392
30.52500,126461
30.53333,126537
30.54167,126608
30.55000,126668
30.55833,126729
30.56667,126796
30.57500,126858
30.58333,126926
30.59167,126990
30.60000,127056
30.60833,127124
30.61667,127191
30.62500,127264
30.63333,127327
30.64167,127393
30.65000,127471
30.65833,127545
30.66667,127607
30.67500,127668
30.68333,127740
30.69167,127811
30.70000,127882
30.70833,127956
30.71667,128028
30.72500,128107
30.73333,128181
30.74167,128258
30.75000,128334
30.75833,128409
30.76667,128491
30.77500,128580
30.78333,128685
30.79167,128787
30.80000,128890
30.80833,128992
30.81667,129083
30.82500,129177
30.83333,129266
30.84167,129365
30.85000,129461
30.85833,129551
30.86667,129642
30.87500,129723
30.88333,129806
30.89167,129885
30.90000,129967
30.90833,130050
30.91667,130129
30.92500,130212
30.93333,130289
30.94167,130373
30.95000,130453
30.95833,130530
30.96667,130608
30.97500,130678
30.98333,130752
30.99167,130822
31.00000,130893
31.00833,130965
31.01667,131037
31.02500,131116
31.03333,131194
31.04167,131284
31.05000,131373
31.05833,131461
31.06667,131550
31.07500,131629
31.08333,131709
31.09167,131778
31.10000,131838
31.10833,131896
31.11667,131948
31.12500,132002
31.13333,132048
31.14167,132094
31.15000,132135
31.15833,132172
31.16667,132208
31.17500,132244
31.18333,132285
31.19167,132323
31.20000,132361
31.20833,132398
31.21667,132432
31.22500,132469
31.23333,132505
31.24167,132545
31.25000,132586
31.25833,132630
31.26667,132678
31.27500,132724
31.28333,132775
31.29167,132823
31.30000,132872
31.30833,132922
31.31667,132972
31.32500,133027
31.33333,133081
31.34167,133139
31.35000,133197
31.35833,133254
31.36667,133313
31.37500,133370
31.38333,133434
31.39167,133498
31.40000,133569
31.40833,133645
31.41667,133725
31.42500,133815
31.43333,133909
31.44167,134020
31.45000,134140
31.45833,134275
31.46667,134430
31.47500,134594
31.48333,134786
31.49167,134977
31.50000,135180
31.50833,135379
31.51667,135546
31.52500,135703
31.53333,135816
31.54167,135902
31.55000,135958
31.55833,135979
31.56667,135977
31.57500,135957
31.58333,135923
31.59167,135894
31.60000,135870
31.60833,135852
31.61667,135843
31.62500,135842
31.63333,135852
31.64167,135875
31.65000,135907
31.65833,135948
31.66667,135997
31.67500,136043
31.68333,136094
31.69167,136146
31.70000,136203
31.70833,136265
31.71667,136328
31.72500,136400
31.73333,136468
31.74167,136538
31.75000,136603
31.75833,136661
31.76667,136718
31.77500,136771
31.78333,136827
31.79167,136883
31.80000,136940
31.80833,136997
31.81667,137048
31.82500,137102
31.83333,137154
31.84167,137212
31.85000,137271
31.85833,137331
31.86667,137396
31.87500,137458
31.88333,137526
31.89167,137590
31.90000,137657
31.90833,137726
31.91667,137792
31.92500,137861
31.93333,137925
31.94167,137992
31.95000,138056
31.95833,138117
31.96667,138179
31.97500,138241
31.98333,138311
31.99167,138379
32.00000,138449
32.00833,138521
32.01667,138585
32.02500,138652
32.03333,138714
32.04167,138781
32.05000,138846
32.05833,138911
32.06667,138979
32.07500,139043
32.08333,139112
32.09167,139178
32.10000,139245
32.10833,139314
32.11667,139382
32.12500,139453
32.13333,139515
32.14167,139577
32.15000,139636
32.15833,139695
32.16667,139758
32.17500,139824
32.18333,139902
32.19167,139980
32.20000,140063
32.20833,140148
32.21667,140227
32.22500,140313
32.23333,140392
32.24167,140476
32.25000,140558
32.25833,140642
32.26667,140729
32.27500,140806
32.28333,140884
32.29167,140957
32.30000,141032
32.30833,141107
32.31667,141175
32.32500,141246
32.33333,141308
32.34167,141370
32.35000,141430
32.35833,141490
32.36667,141554
32.37500,141614
32.38333,141680
32.39167,141742
32.40000,141806
32.40833,141873
32.41667,141937
32.42500,142010
32.43333,142086
32.44167,142178
32.45000,142272
32.45833,142364
32.46667,142459
32.47500,142540
32.48333,142620
32.49167,142694
32.50000,142770
32.50833,142843
32.51667,142905
32.52500,142967
32.53333,143024
32.54167,143086
32.55000,143147
32.55833,143208
32.56667,143272
32.57500,143329
32.58333,143390
32.59167,143451
32.60000,143517
32.60833,143585
32.61667,143649
32.62500,143718
32.63333,143781
32.64167,143847
32.65000,143911
32.65833,143977
32.66667,144048
32.67500,144121
32.68333,144202
32.69167,144281
32.70000,144362
32.70833,144443
32.71667,144517
32.72500,144594
32.73333,144664
32.74167,144735
32.75000,144805
32.75833,144876
32.76667,144950
32.77500,145017
32.78333,145088
32.79167,145153
32.80000,145216
32.80833,145281
32.81667,145353
32.82500,145437
32.83333,145526
32.84167,145629
32.85000,145736
32.85833,145845
32.86667,145961
32.87500,146064
32.88333,146170
32.89167,146260
32.90000,146340
32.90833,146413
32.91667,146474
32.92500,146534
32.93333,146587
32.94167,146641
32.95000,146693
32.95833,146745
32.96667,146800
32.97500,146853
32.98333,146911
32.99167,146967
33.00000,147022
33.00833,147078
33.01667,147131
33.02500,147188
33.03333,147245
33.04167,147312
33.05000,147378
33.05833,147444
33.06667,147513
33.07500,147576
33.08333,147641
33.09167,147707
33.10000,147781
33.10833,147859
33.11667,147932
33.12500,148011
33.13333,148081
33.14167,148153
33.15000,148221
33.15833,148283
33.16667,148348
33.17500,148408
33.18333,148470
33.19167,148530
33.20000,148594
33.20833,148660
33.21667,148720
33.22500,148783
33.23333,148844
33.24167,148913
33.25000,148983
33.25833,149053
33.26667,149129
33.27500,149199
33.28333,149275
33.29167,149348
33.30000,149427
33.30833,149509
33.31667,149590
33.32500,149679
33.33333,149763
33.34167,149854
33.35000,149945
33.35833,150037
33.36667,150134
33.37500,150225
33.38333,150322
33.39167,150414
33.40000,150506
33.40833,150598
33.41667,150683
33.42500,150771
33.43333,150851
33.44167,150934
33.45000,151014
33.45833,151089
33.46667,151167
33.47500,151237
33.48333,151310
33.49167,151380
33.50000,151452
33.50833,151523
33.51667,151582
33.52500,151640
33.53333,151692
33.54167,151749
33.55000,151808
33.55833,151872
33.56667,151940
33.57500,151997
33.58333,152053
33.59167,152104
33.60000,152156
33.60833,152210
33.61667,152261
33.62500,152315
33.63333,152362
33.64167,152406
33.65000,152446
33.65833,152487
33.66667,152533
33.67500,152581
33.68333,152637
33.69167,152691
33.70000,152744
33.70833,152799
33.71667,152852
33.72500,152912
33.73333,152968
33.74167,153028
33.75000,153089
33.75833,153151
33.76667,153219
33.77500,153288
33.78333,153367
33.79167,153443
33.80000,153523
33.80833,153609
33.81667,153699
33.82500,153804
33.83333,153914
33.84167,154045
33.85000,154183
33.85833,154335
33.86667,154504
33.87500,154663
33.88333,154834
33.89167,154981
33.90000,155110
33.90833,155222
33.91667,155302
33.92500,155366
33.93333,155405
33.94167,155427
33.95000,155440
33.95833,155445
33.96667,155446
33.97500,155450
33.98333,155459
33.99167,155475
34.00000,155500
34.00833,155533
34.01667,155579
34.02500,155642
34.03333,155717
34.04167,155815
34.05000,155925
34.05833,156052
34.06667,156196
34.07500,156343
34.08333,156510
34.09167,156667
34.10000,156826
34.10833,156976
34.11667,157094
34.12500,157198
34.13333,157266
34.14167,157307
34.15000,157325

